#== Filter Data - Lambda 9 Spectrophotometer ==
#  Kitt Peak National Observatory - NOAO
#------------------------------------------------
#Filter: GjHa 0.2NM/15NMPERMIN/0.5S 5500-7000A
#Date: 09/28/04 Time: 14:49:07 Operator: HS
#cwl= 6575.68A fwhm= 44.15A Tmax= 85.91% at 6582.00A
#Tcutoff= 2.00 % Slitsize = 2 A
#fwhm spans 6553.61A to 6597.76A
#90% spans 6563.38A to 6589.93A
#bw90 is 0.601; Tmin90/Tmax is 0.900
#No data smoothing
#
#Npts= 751 Disp= 2.00A/Interval
#*****
  5500.00 0.000
  5502.00 -0.005
  5504.00 -0.005
  5506.00 -0.005
  5508.00 -0.005
  5510.00 -0.005
  5512.00 -0.005
  5514.00 0.000
  5516.00 -0.005
  5518.00 -0.005
  5520.00 -0.005
  5522.00 -0.005
  5524.00 -0.005
  5526.00 -0.005
  5528.00 -0.005
  5530.00 -0.005
  5532.00 -0.005
  5534.00 -0.005
  5536.00 0.000
  5538.00 -0.005
  5540.00 -0.005
  5542.00 -0.005
  5544.00 -0.005
  5546.00 0.000
  5548.00 0.000
  5550.00 -0.005
  5552.00 -0.005
  5554.00 0.000
  5556.00 -0.005
  5558.00 0.000
  5560.00 -0.005
  5562.00 -0.005
  5564.00 -0.005
  5566.00 0.000
  5568.00 -0.005
  5570.00 0.000
  5572.00 -0.005
  5574.00 -0.005
  5576.00 -0.005
  5578.00 -0.005
  5580.00 -0.005
  5582.00 -0.005
  5584.00 -0.005
  5586.00 0.000
  5588.00 -0.005
  5590.00 -0.005
  5592.00 -0.005
  5594.00 -0.010
  5596.00 -0.005
  5598.00 -0.005
  5600.00 -0.005
  5602.00 -0.005
  5604.00 -0.005
  5606.00 -0.005
  5608.00 0.000
  5610.00 -0.005
  5612.00 -0.005
  5614.00 -0.005
  5616.00 -0.005
  5618.00 -0.005
  5620.00 -0.005
  5622.00 0.000
  5624.00 -0.005
  5626.00 -0.005
  5628.00 -0.005
  5630.00 -0.005
  5632.00 -0.005
  5634.00 -0.005
  5636.00 -0.005
  5638.00 0.000
  5640.00 -0.005
  5642.00 -0.005
  5644.00 -0.005
  5646.00 -0.005
  5648.00 -0.005
  5650.00 -0.005
  5652.00 -0.005
  5654.00 -0.005
  5656.00 -0.005
  5658.00 -0.005
  5660.00 0.000
  5662.00 -0.005
  5664.00 -0.005
  5666.00 0.000
  5668.00 0.000
  5670.00 -0.005
  5672.00 0.000
  5674.00 -0.005
  5676.00 -0.005
  5678.00 -0.005
  5680.00 0.000
  5682.00 -0.005
  5684.00 -0.005
  5686.00 -0.005
  5688.00 -0.010
  5690.00 -0.005
  5692.00 0.000
  5694.00 -0.005
  5696.00 0.000
  5698.00 -0.005
  5700.00 -0.005
  5702.00 -0.005
  5704.00 -0.005
  5706.00 -0.005
  5708.00 0.000
  5710.00 -0.005
  5712.00 -0.005
  5714.00 -0.005
  5716.00 -0.005
  5718.00 -0.005
  5720.00 -0.010
  5722.00 -0.010
  5724.00 -0.005
  5726.00 -0.005
  5728.00 -0.005
  5730.00 0.000
  5732.00 -0.005
  5734.00 -0.005
  5736.00 -0.005
  5738.00 -0.005
  5740.00 0.000
  5742.00 0.000
  5744.00 -0.005
  5746.00 -0.005
  5748.00 -0.005
  5750.00 -0.005
  5752.00 -0.005
  5754.00 -0.005
  5756.00 -0.005
  5758.00 -0.005
  5760.00 -0.005
  5762.00 0.000
  5764.00 -0.005
  5766.00 0.000
  5768.00 -0.005
  5770.00 -0.005
  5772.00 -0.005
  5774.00 -0.005
  5776.00 -0.005
  5778.00 0.000
  5780.00 0.000
  5782.00 -0.005
  5784.00 -0.005
  5786.00 -0.005
  5788.00 0.000
  5790.00 -0.005
  5792.00 -0.005
  5794.00 -0.005
  5796.00 -0.005
  5798.00 -0.005
  5800.00 -0.005
  5802.00 -0.005
  5804.00 -0.005
  5806.00 -0.005
  5808.00 -0.005
  5810.00 -0.005
  5812.00 -0.005
  5814.00 -0.005
  5816.00 -0.005
  5818.00 0.000
  5820.00 -0.010
  5822.00 -0.005
  5824.00 -0.005
  5826.00 -0.005
  5828.00 -0.005
  5830.00 -0.005
  5832.00 -0.005
  5834.00 -0.005
  5836.00 -0.005
  5838.00 -0.005
  5840.00 -0.005
  5842.00 -0.005
  5844.00 -0.005
  5846.00 -0.005
  5848.00 -0.005
  5850.00 0.000
  5852.00 -0.005
  5854.00 -0.005
  5856.00 0.000
  5858.00 -0.005
  5860.00 -0.005
  5862.00 -0.005
  5864.00 -0.005
  5866.00 0.000
  5868.00 0.000
  5870.00 -0.005
  5872.00 -0.005
  5874.00 -0.005
  5876.00 -0.005
  5878.00 -0.005
  5880.00 -0.005
  5882.00 0.000
  5884.00 -0.005
  5886.00 -0.005
  5888.00 0.000
  5890.00 -0.005
  5892.00 -0.005
  5894.00 0.000
  5896.00 -0.005
  5898.00 -0.005
  5900.00 0.000
  5902.00 0.000
  5904.00 -0.005
  5906.00 -0.005
  5908.00 -0.005
  5910.00 0.000
  5912.00 -0.005
  5914.00 -0.005
  5916.00 -0.005
  5918.00 -0.005
  5920.00 -0.005
  5922.00 -0.005
  5924.00 -0.005
  5926.00 -0.005
  5928.00 -0.005
  5930.00 -0.005
  5932.00 -0.005
  5934.00 -0.005
  5936.00 -0.005
  5938.00 -0.005
  5940.00 0.000
  5942.00 -0.005
  5944.00 -0.005
  5946.00 -0.005
  5948.00 -0.005
  5950.00 -0.005
  5952.00 -0.005
  5954.00 -0.005
  5956.00 -0.005
  5958.00 -0.005
  5960.00 -0.005
  5962.00 -0.005
  5964.00 -0.005
  5966.00 0.000
  5968.00 -0.005
  5970.00 -0.005
  5972.00 -0.005
  5974.00 -0.005
  5976.00 -0.005
  5978.00 -0.005
  5980.00 -0.005
  5982.00 -0.005
  5984.00 -0.005
  5986.00 -0.005
  5988.00 -0.005
  5990.00 -0.005
  5992.00 -0.005
  5994.00 -0.005
  5996.00 -0.005
  5998.00 -0.005
  6000.00 -0.005
  6002.00 0.000
  6004.00 -0.005
  6006.00 -0.005
  6008.00 0.000
  6010.00 0.000
  6012.00 -0.005
  6014.00 -0.005
  6016.00 0.000
  6018.00 -0.005
  6020.00 -0.005
  6022.00 0.000
  6024.00 0.000
  6026.00 -0.005
  6028.00 -0.005
  6030.00 -0.005
  6032.00 -0.005
  6034.00 0.000
  6036.00 -0.005
  6038.00 0.000
  6040.00 0.000
  6042.00 -0.005
  6044.00 -0.005
  6046.00 -0.005
  6048.00 0.000
  6050.00 -0.005
  6052.00 -0.005
  6054.00 -0.005
  6056.00 -0.005
  6058.00 -0.005
  6060.00 -0.005
  6062.00 0.000
  6064.00 -0.005
  6066.00 -0.005
  6068.00 -0.005
  6070.00 0.000
  6072.00 -0.005
  6074.00 -0.005
  6076.00 -0.005
  6078.00 -0.005
  6080.00 0.000
  6082.00 -0.005
  6084.00 -0.005
  6086.00 -0.005
  6088.00 0.000
  6090.00 0.000
  6092.00 -0.005
  6094.00 -0.005
  6096.00 -0.005
  6098.00 -0.005
  6100.00 -0.005
  6102.00 0.000
  6104.00 0.000
  6106.00 -0.005
  6108.00 0.000
  6110.00 0.005
  6112.00 -0.005
  6114.00 -0.005
  6116.00 -0.005
  6118.00 -0.005
  6120.00 -0.005
  6122.00 -0.005
  6124.00 -0.005
  6126.00 -0.005
  6128.00 0.000
  6130.00 -0.005
  6132.00 -0.005
  6134.00 -0.005
  6136.00 -0.005
  6138.00 -0.005
  6140.00 -0.005
  6142.00 -0.005
  6144.00 -0.005
  6146.00 0.000
  6148.00 -0.005
  6150.00 -0.005
  6152.00 -0.005
  6154.00 -0.005
  6156.00 -0.010
  6158.00 -0.005
  6160.00 -0.005
  6162.00 0.000
  6164.00 -0.005
  6166.00 0.000
  6168.00 -0.005
  6170.00 0.000
  6172.00 -0.005
  6174.00 -0.005
  6176.00 0.000
  6178.00 0.000
  6180.00 0.000
  6182.00 -0.005
  6184.00 -0.005
  6186.00 -0.005
  6188.00 -0.005
  6190.00 -0.005
  6192.00 -0.005
  6194.00 -0.005
  6196.00 0.000
  6198.00 -0.005
  6200.00 0.000
  6202.00 -0.005
  6204.00 -0.005
  6206.00 -0.005
  6208.00 -0.005
  6210.00 0.000
  6212.00 -0.005
  6214.00 -0.005
  6216.00 -0.005
  6218.00 -0.005
  6220.00 0.000
  6222.00 -0.005
  6224.00 -0.005
  6226.00 -0.005
  6228.00 -0.005
  6230.00 -0.005
  6232.00 -0.005
  6234.00 0.000
  6236.00 -0.005
  6238.00 -0.005
  6240.00 -0.005
  6242.00 -0.005
  6244.00 -0.005
  6246.00 -0.005
  6248.00 -0.005
  6250.00 -0.005
  6252.00 -0.005
  6254.00 -0.005
  6256.00 -0.005
  6258.00 -0.005
  6260.00 -0.005
  6262.00 -0.005
  6264.00 -0.005
  6266.00 -0.005
  6268.00 -0.010
  6270.00 -0.005
  6272.00 -0.005
  6274.00 -0.010
  6276.00 0.000
  6278.00 -0.005
  6280.00 -0.005
  6282.00 0.000
  6284.00 -0.005
  6286.00 0.000
  6288.00 -0.005
  6290.00 0.000
  6292.00 -0.005
  6294.00 -0.005
  6296.00 -0.005
  6298.00 -0.005
  6300.00 -0.005
  6302.00 0.000
  6304.00 -0.005
  6306.00 -0.005
  6308.00 0.000
  6310.00 -0.005
  6312.00 -0.005
  6314.00 -0.005
  6316.00 -0.005
  6318.00 0.000
  6320.00 -0.005
  6322.00 -0.005
  6324.00 -0.005
  6326.00 -0.005
  6328.00 0.000
  6330.00 -0.005
  6332.00 0.000
  6334.00 -0.005
  6336.00 -0.005
  6338.00 -0.005
  6340.00 0.000
  6342.00 0.000
  6344.00 -0.005
  6346.00 -0.005
  6348.00 0.000
  6350.00 -0.005
  6352.00 -0.005
  6354.00 -0.005
  6356.00 -0.005
  6358.00 0.000
  6360.00 0.000
  6362.00 -0.005
  6364.00 -0.005
  6366.00 0.000
  6368.00 -0.005
  6370.00 0.000
  6372.00 -0.005
  6374.00 -0.005
  6376.00 0.000
  6378.00 -0.005
  6380.00 0.000
  6382.00 -0.005
  6384.00 -0.005
  6386.00 -0.005
  6388.00 -0.005
  6390.00 -0.005
  6392.00 -0.005
  6394.00 0.000
  6396.00 -0.005
  6398.00 -0.005
  6400.00 0.000
  6402.00 -0.005
  6404.00 -0.005
  6406.00 -0.005
  6408.00 -0.005
  6410.00 0.000
  6412.00 -0.005
  6414.00 0.000
  6416.00 -0.005
  6418.00 -0.005
  6420.00 -0.005
  6422.00 -0.005
  6424.00 0.000
  6426.00 -0.005
  6428.00 -0.005
  6430.00 -0.005
  6432.00 0.000
  6434.00 0.000
  6436.00 -0.005
  6438.00 -0.005
  6440.00 0.000
  6442.00 -0.010
  6444.00 0.000
  6446.00 -0.005
  6448.00 0.000
  6450.00 0.000
  6452.00 -0.005
  6454.00 -0.005
  6456.00 -0.005
  6458.00 0.000
  6460.00 0.000
  6462.00 0.000
  6464.00 0.000
  6466.00 0.000
  6468.00 0.000
  6470.00 0.000
  6472.00 0.000
  6474.00 0.000
  6476.00 0.005
  6478.00 0.005
  6480.00 0.000
  6482.00 0.000
  6484.00 0.000
  6486.00 0.005
  6488.00 0.000
  6490.00 0.005
  6492.00 0.010
  6494.00 0.010
  6496.00 0.010
  6498.00 0.010
  6500.00 0.010
  6502.00 0.020
  6504.00 0.025
  6506.00 0.025
  6508.00 0.030
  6510.00 0.040
  6512.00 0.050
  6514.00 0.055
  6516.00 0.070
  6518.00 0.090
  6520.00 0.125
  6522.00 0.145
  6524.00 0.195
  6526.00 0.255
  6528.00 0.340
  6530.00 0.470
  6532.00 0.640
  6534.00 0.860
  6536.00 1.255
  6538.00 1.860
  6540.00 2.745
  6542.00 4.190
  6544.00 6.415
  6546.00 9.915
  6548.00 15.295
  6550.00 23.200
  6552.00 33.580
  6554.00 45.235
  6556.00 55.905
  6558.00 65.035
  6560.00 71.000
  6562.00 75.075
  6564.00 78.325
  6566.00 80.875
  6568.00 82.805
  6570.00 83.980
  6572.00 84.795
  6574.00 85.000
  6576.00 85.345
  6578.00 85.115
  6580.00 84.975
  6582.00 85.905
  6584.00 85.180
  6586.00 84.075
  6588.00 81.715
  6590.00 77.160
  6592.00 69.465
  6594.00 60.725
  6596.00 50.995
  6598.00 41.830
  6600.00 33.285
  6602.00 26.280
  6604.00 20.460
  6606.00 15.610
  6608.00 11.810
  6610.00 8.660
  6612.00 6.315
  6614.00 4.570
  6616.00 3.325
  6618.00 2.345
  6620.00 1.685
  6622.00 1.230
  6624.00 0.875
  6626.00 0.645
  6628.00 0.455
  6630.00 0.355
  6632.00 0.265
  6634.00 0.200
  6636.00 0.165
  6638.00 0.115
  6640.00 0.095
  6642.00 0.075
  6644.00 0.055
  6646.00 0.040
  6648.00 0.030
  6650.00 0.030
  6652.00 0.030
  6654.00 0.010
  6656.00 0.010
  6658.00 0.020
  6660.00 0.010
  6662.00 0.015
  6664.00 0.010
  6666.00 0.005
  6668.00 0.000
  6670.00 0.000
  6672.00 0.005
  6674.00 0.000
  6676.00 0.005
  6678.00 0.000
  6680.00 -0.005
  6682.00 -0.005
  6684.00 0.000
  6686.00 -0.005
  6688.00 0.000
  6690.00 0.000
  6692.00 -0.005
  6694.00 0.000
  6696.00 0.000
  6698.00 -0.005
  6700.00 0.000
  6702.00 -0.005
  6704.00 -0.005
  6706.00 0.000
  6708.00 0.000
  6710.00 -0.005
  6712.00 0.000
  6714.00 0.005
  6716.00 -0.005
  6718.00 0.000
  6720.00 -0.005
  6722.00 -0.005
  6724.00 -0.005
  6726.00 0.000
  6728.00 -0.005
  6730.00 0.000
  6732.00 -0.005
  6734.00 -0.005
  6736.00 -0.005
  6738.00 0.000
  6740.00 -0.005
  6742.00 0.000
  6744.00 -0.005
  6746.00 -0.005
  6748.00 0.000
  6750.00 -0.005
  6752.00 -0.005
  6754.00 -0.005
  6756.00 -0.005
  6758.00 0.000
  6760.00 -0.005
  6762.00 -0.005
  6764.00 -0.005
  6766.00 0.000
  6768.00 0.000
  6770.00 -0.005
  6772.00 -0.005
  6774.00 0.000
  6776.00 -0.005
  6778.00 -0.005
  6780.00 -0.005
  6782.00 0.000
  6784.00 0.000
  6786.00 -0.005
  6788.00 -0.005
  6790.00 0.000
  6792.00 -0.005
  6794.00 -0.010
  6796.00 -0.005
  6798.00 -0.005
  6800.00 -0.005
  6802.00 0.000
  6804.00 -0.005
  6806.00 0.000
  6808.00 -0.005
  6810.00 -0.005
  6812.00 0.000
  6814.00 -0.005
  6816.00 -0.005
  6818.00 0.000
  6820.00 0.000
  6822.00 -0.005
  6824.00 -0.005
  6826.00 0.000
  6828.00 -0.005
  6830.00 -0.005
  6832.00 0.000
  6834.00 0.000
  6836.00 0.000
  6838.00 0.000
  6840.00 0.000
  6842.00 0.000
  6844.00 0.000
  6846.00 -0.005
  6848.00 -0.005
  6850.00 0.000
  6852.00 0.000
  6854.00 -0.005
  6856.00 -0.005
  6858.00 -0.005
  6860.00 -0.005
  6862.00 0.000
  6864.00 -0.005
  6866.00 -0.005
  6868.00 0.000
  6870.00 0.000
  6872.00 -0.005
  6874.00 -0.005
  6876.00 -0.005
  6878.00 -0.005
  6880.00 -0.005
  6882.00 0.000
  6884.00 -0.005
  6886.00 0.000
  6888.00 0.000
  6890.00 -0.005
  6892.00 -0.005
  6894.00 -0.005
  6896.00 -0.005
  6898.00 0.000
  6900.00 -0.005
  6902.00 -0.005
  6904.00 -0.010
  6906.00 -0.005
  6908.00 -0.005
  6910.00 -0.005
  6912.00 0.000
  6914.00 0.000
  6916.00 -0.005
  6918.00 0.000
  6920.00 -0.005
  6922.00 -0.005
  6924.00 -0.005
  6926.00 -0.005
  6928.00 -0.005
  6930.00 0.005
  6932.00 0.000
  6934.00 -0.005
  6936.00 0.000
  6938.00 -0.005
  6940.00 0.000
  6942.00 -0.005
  6944.00 0.000
  6946.00 0.000
  6948.00 0.000
  6950.00 0.000
  6952.00 0.000
  6954.00 -0.005
  6956.00 -0.005
  6958.00 -0.005
  6960.00 -0.005
  6962.00 0.000
  6964.00 -0.005
  6966.00 0.000
  6968.00 -0.010
  6970.00 -0.005
  6972.00 -0.005
  6974.00 -0.005
  6976.00 -0.005
  6978.00 0.000
  6980.00 0.000
  6982.00 0.000
  6984.00 -0.005
  6986.00 0.000
  6988.00 0.000
  6990.00 0.000
  6992.00 0.000
  6994.00 0.000
  6996.00 -0.005
  6998.00 0.000
  7000.00 -0.035
