#== Filter Data - Lambda 9 Spectrophotometer ==
# Kitt Peak National Observatory - NOAO
#------------------------------------------------
#Filter: WIYN NEWU#1 1NM/120NMPERMIN/0.5S  300-1200NM
#Date: 02/17/04   Time: 15:53:30  Operator: HS
#cwl=  3637.37A  fwhm= 572.56A  Tmax= 61.60% at  3700.00A
#Tcutoff=  2.00 %  Slitsize = 10 A
#fwhm spans 3351.09A to 3923.65A
#90%  spans 3554.10A to 3807.23A
#bw90 is  0.442; Tmin90/Tmax is  0.900
#No data smoothing
#
#Npts=  901     Disp= 10.00A/Interval
#*****
  3000.00    -0.005
  3010.00     0.000
  3020.00    -0.005
  3030.00     0.000
  3040.00     0.000
  3050.00     0.005
  3060.00     0.010
  3070.00     0.030
  3080.00     0.065
  3090.00     0.120
  3100.00     0.210
  3110.00     0.345
  3120.00     0.545
  3130.00     0.825
  3140.00     1.180
  3150.00     1.655
  3160.00     2.240
  3170.00     2.970
  3180.00     3.795
  3190.00     4.740
  3200.00     5.865
  3210.00     7.095
  3220.00     8.410
  3230.00     9.850
  3240.00    11.355
  3250.00    12.980
  3260.00    14.690
  3270.00    16.425
  3280.00    18.235
  3290.00    20.040
  3300.00    21.850
  3310.00    23.625
  3320.00    25.440
  3330.00    27.200
  3340.00    28.925
  3350.00    30.625
  3360.00    32.235
  3370.00    33.810
  3380.00    35.395
  3390.00    36.845
  3400.00    38.385
  3410.00    39.725
  3420.00    41.080
  3430.00    42.430
  3440.00    43.680
  3450.00    44.885
  3460.00    46.065
  3470.00    47.260
  3480.00    48.350
  3490.00    49.425
  3500.00    50.545
  3510.00    51.480
  3520.00    52.435
  3530.00    53.395
  3540.00    54.260
  3550.00    55.085
  3560.00    55.950
  3570.00    56.675
  3580.00    57.440
  3590.00    58.035
  3600.00    58.685
  3610.00    59.200
  3620.00    59.725
  3630.00    60.125
  3640.00    60.495
  3650.00    60.780
  3660.00    61.110
  3670.00    61.300
  3680.00    61.450
  3690.00    61.535
  3700.00    61.600
  3710.00    61.475
  3720.00    61.260
  3730.00    61.010
  3740.00    60.755
  3750.00    60.395
  3760.00    59.700
  3770.00    58.975
  3780.00    58.280
  3790.00    57.320
  3800.00    56.290
  3810.00    55.115
  3820.00    53.650
  3830.00    52.080
  3840.00    50.395
  3850.00    48.560
  3860.00    46.530
  3870.00    44.295
  3880.00    42.060
  3890.00    39.535
  3900.00    37.070
  3910.00    34.435
  3920.00    31.795
  3930.00    29.070
  3940.00    26.475
  3950.00    23.800
  3960.00    21.250
  3970.00    18.800
  3980.00    16.470
  3990.00    14.300
  4000.00    12.285
  4010.00    10.460
  4020.00     8.800
  4030.00     7.345
  4040.00     6.075
  4050.00     4.970
  4060.00     4.010
  4070.00     3.205
  4080.00     2.545
  4090.00     1.990
  4100.00     1.550
  4110.00     1.195
  4120.00     0.910
  4130.00     0.695
  4140.00     0.525
  4150.00     0.395
  4160.00     0.295
  4170.00     0.215
  4180.00     0.155
  4190.00     0.115
  4200.00     0.085
  4210.00     0.060
  4220.00     0.045
  4230.00     0.030
  4240.00     0.020
  4250.00     0.015
  4260.00     0.010
  4270.00     0.005
  4280.00     0.005
  4290.00     0.005
  4300.00     0.000
  4310.00     0.000
  4320.00     0.000
  4330.00     0.000
  4340.00     0.000
  4350.00     0.000
  4360.00     0.000
  4370.00     0.000
  4380.00     0.000
  4390.00    -0.005
  4400.00     0.000
  4410.00     0.000
  4420.00     0.000
  4430.00     0.000
  4440.00    -0.005
  4450.00     0.000
  4460.00    -0.005
  4470.00     0.000
  4480.00    -0.005
  4490.00    -0.005
  4500.00     0.000
  4510.00    -0.005
  4520.00     0.000
  4530.00    -0.005
  4540.00    -0.005
  4550.00     0.000
  4560.00    -0.005
  4570.00     0.000
  4580.00     0.000
  4590.00     0.000
  4600.00     0.000
  4610.00     0.000
  4620.00     0.000
  4630.00     0.000
  4640.00     0.000
  4650.00     0.000
  4660.00     0.000
  4670.00     0.000
  4680.00     0.000
  4690.00     0.000
  4700.00     0.000
  4710.00     0.000
  4720.00     0.000
  4730.00     0.000
  4740.00     0.000
  4750.00     0.000
  4760.00     0.000
  4770.00     0.000
  4780.00     0.000
  4790.00     0.000
  4800.00    -0.005
  4810.00    -0.005
  4820.00     0.000
  4830.00    -0.005
  4840.00    -0.005
  4850.00    -0.005
  4860.00    -0.005
  4870.00    -0.005
  4880.00    -0.005
  4890.00    -0.005
  4900.00     0.000
  4910.00     0.000
  4920.00    -0.005
  4930.00    -0.005
  4940.00    -0.005
  4950.00     0.000
  4960.00     0.000
  4970.00    -0.005
  4980.00    -0.005
  4990.00    -0.005
  5000.00    -0.005
  5010.00     0.000
  5020.00     0.000
  5030.00     0.000
  5040.00     0.000
  5050.00     0.000
  5060.00     0.000
  5070.00     0.000
  5080.00     0.000
  5090.00     0.000
  5100.00     0.000
  5110.00     0.000
  5120.00     0.000
  5130.00     0.000
  5140.00    -0.005
  5150.00     0.000
  5160.00     0.000
  5170.00     0.000
  5180.00    -0.005
  5190.00     0.000
  5200.00     0.000
  5210.00     0.000
  5220.00     0.000
  5230.00    -0.005
  5240.00    -0.005
  5250.00     0.000
  5260.00     0.000
  5270.00     0.000
  5280.00     0.000
  5290.00     0.000
  5300.00    -0.005
  5310.00    -0.005
  5320.00    -0.005
  5330.00     0.000
  5340.00     0.000
  5350.00     0.000
  5360.00     0.000
  5370.00     0.000
  5380.00    -0.005
  5390.00     0.000
  5400.00    -0.005
  5410.00     0.000
  5420.00     0.000
  5430.00     0.000
  5440.00     0.000
  5450.00    -0.005
  5460.00     0.000
  5470.00     0.000
  5480.00     0.000
  5490.00     0.000
  5500.00     0.000
  5510.00    -0.005
  5520.00     0.000
  5530.00     0.000
  5540.00    -0.005
  5550.00    -0.005
  5560.00     0.000
  5570.00     0.000
  5580.00     0.000
  5590.00    -0.005
  5600.00    -0.005
  5610.00    -0.005
  5620.00    -0.040
  5630.00     0.000
  5640.00     0.000
  5650.00     0.000
  5660.00     0.000
  5670.00    -0.005
  5680.00     0.000
  5690.00     0.000
  5700.00    -0.005
  5710.00     0.000
  5720.00     0.000
  5730.00     0.000
  5740.00     0.000
  5750.00     0.000
  5760.00    -0.005
  5770.00     0.000
  5780.00     0.000
  5790.00    -0.005
  5800.00    -0.005
  5810.00     0.000
  5820.00     0.000
  5830.00    -0.005
  5840.00     0.000
  5850.00    -0.005
  5860.00     0.000
  5870.00     0.000
  5880.00    -0.005
  5890.00     0.000
  5900.00     0.000
  5910.00     0.000
  5920.00    -0.005
  5930.00    -0.005
  5940.00     0.000
  5950.00     0.000
  5960.00     0.000
  5970.00    -0.005
  5980.00    -0.005
  5990.00     0.000
  6000.00     0.000
  6010.00    -0.005
  6020.00    -0.005
  6030.00     0.000
  6040.00     0.000
  6050.00     0.000
  6060.00     0.000
  6070.00    -0.005
  6080.00     0.000
  6090.00    -0.005
  6100.00    -0.005
  6110.00    -0.005
  6120.00     0.000
  6130.00     0.000
  6140.00     0.000
  6150.00    -0.005
  6160.00     0.000
  6170.00     0.000
  6180.00     0.000
  6190.00     0.000
  6200.00     0.000
  6210.00     0.000
  6220.00     0.000
  6230.00     0.000
  6240.00     0.000
  6250.00     0.000
  6260.00     0.000
  6270.00     0.000
  6280.00     0.000
  6290.00     0.000
  6300.00     0.000
  6310.00     0.000
  6320.00     0.000
  6330.00     0.000
  6340.00     0.000
  6350.00     0.000
  6360.00     0.000
  6370.00     0.000
  6380.00     0.000
  6390.00     0.000
  6400.00     0.000
  6410.00    -0.005
  6420.00     0.000
  6430.00    -0.005
  6440.00     0.000
  6450.00    -0.005
  6460.00    -0.005
  6470.00     0.000
  6480.00     0.000
  6490.00    -0.005
  6500.00    -0.005
  6510.00     0.000
  6520.00     0.000
  6530.00     0.000
  6540.00     0.000
  6550.00    -0.005
  6560.00    -0.005
  6570.00    -0.005
  6580.00     0.000
  6590.00    -0.005
  6600.00     0.000
  6610.00     0.000
  6620.00    -0.005
  6630.00     0.000
  6640.00     0.000
  6650.00    -0.005
  6660.00     0.000
  6670.00     0.000
  6680.00    -0.005
  6690.00    -0.005
  6700.00     0.000
  6710.00     0.000
  6720.00     0.000
  6730.00    -0.005
  6740.00    -0.005
  6750.00    -0.005
  6760.00     0.000
  6770.00     0.000
  6780.00     0.000
  6790.00     0.000
  6800.00     0.000
  6810.00     0.000
  6820.00     0.000
  6830.00     0.000
  6840.00     0.000
  6850.00     0.000
  6860.00     0.000
  6870.00     0.000
  6880.00     0.000
  6890.00    -0.005
  6900.00    -0.035
  6910.00     0.000
  6920.00     0.000
  6930.00     0.000
  6940.00     0.000
  6950.00     0.000
  6960.00     0.000
  6970.00     0.000
  6980.00     0.000
  6990.00     0.000
  7000.00     0.000
  7010.00     0.000
  7020.00     0.000
  7030.00     0.000
  7040.00     0.000
  7050.00     0.005
  7060.00     0.005
  7070.00     0.005
  7080.00     0.005
  7090.00     0.005
  7100.00     0.005
  7110.00     0.000
  7120.00     0.000
  7130.00     0.005
  7140.00     0.005
  7150.00     0.005
  7160.00     0.000
  7170.00     0.000
  7180.00     0.005
  7190.00     0.000
  7200.00     0.000
  7210.00     0.000
  7220.00     0.000
  7230.00     0.000
  7240.00     0.000
  7250.00     0.000
  7260.00     0.000
  7270.00     0.000
  7280.00     0.000
  7290.00     0.000
  7300.00     0.000
  7310.00     0.000
  7320.00     0.000
  7330.00     0.000
  7340.00     0.000
  7350.00     0.000
  7360.00     0.000
  7370.00     0.000
  7380.00     0.000
  7390.00     0.000
  7400.00     0.000
  7410.00     0.000
  7420.00     0.000
  7430.00     0.000
  7440.00     0.000
  7450.00     0.000
  7460.00    -0.005
  7470.00    -0.005
  7480.00     0.000
  7490.00     0.000
  7500.00     0.000
  7510.00     0.000
  7520.00     0.000
  7530.00     0.000
  7540.00     0.000
  7550.00     0.000
  7560.00    -0.005
  7570.00     0.000
  7580.00     0.000
  7590.00    -0.005
  7600.00     0.000
  7610.00     0.000
  7620.00    -0.005
  7630.00     0.000
  7640.00     0.000
  7650.00     0.000
  7660.00     0.000
  7670.00     0.000
  7680.00     0.000
  7690.00     0.000
  7700.00     0.000
  7710.00     0.000
  7720.00     0.000
  7730.00     0.000
  7740.00     0.000
  7750.00     0.000
  7760.00     0.000
  7770.00     0.000
  7780.00     0.000
  7790.00     0.000
  7800.00     0.000
  7810.00     0.000
  7820.00     0.000
  7830.00     0.000
  7840.00     0.000
  7850.00     0.000
  7860.00     0.000
  7870.00     0.000
  7880.00     0.000
  7890.00     0.000
  7900.00     0.000
  7910.00     0.000
  7920.00     0.000
  7930.00     0.000
  7940.00     0.000
  7950.00     0.000
  7960.00     0.000
  7970.00     0.000
  7980.00     0.000
  7990.00     0.000
  8000.00     0.000
  8010.00     0.000
  8020.00     0.000
  8030.00     0.000
  8040.00     0.000
  8050.00     0.000
  8060.00     0.000
  8070.00     0.000
  8080.00     0.000
  8090.00     0.000
  8100.00    -0.005
  8110.00     0.000
  8120.00     0.000
  8130.00    -0.005
  8140.00     0.000
  8150.00     0.000
  8160.00     0.000
  8170.00     0.000
  8180.00     0.000
  8190.00     0.000
  8200.00     0.000
  8210.00     0.000
  8220.00     0.000
  8230.00     0.000
  8240.00     0.000
  8250.00     0.000
  8260.00     0.000
  8270.00     0.000
  8280.00     0.000
  8290.00     0.000
  8300.00     0.000
  8310.00     0.000
  8320.00     0.000
  8330.00     0.000
  8340.00     0.000
  8350.00     0.000
  8360.00     0.000
  8370.00     0.000
  8380.00     0.005
  8390.00     0.000
  8400.00     0.005
  8410.00     0.000
  8420.00     0.005
  8430.00     0.000
  8440.00     0.005
  8450.00     0.000
  8460.00     0.000
  8470.00     0.005
  8480.00     0.005
  8490.00     0.005
  8500.00     0.005
  8510.00     0.005
  8520.00     0.005
  8530.00     0.005
  8540.00     0.000
  8550.00     0.000
  8560.00     0.000
  8570.00     0.005
  8580.00     0.005
  8590.00     0.000
  8600.00     0.005
  8610.00     0.070
  8620.00     0.090
  8630.00     0.035
  8640.00     0.035
  8650.00     0.050
  8660.00     0.070
  8670.00     0.065
  8680.00     0.050
  8690.00     0.025
  8700.00     0.040
  8710.00     0.090
  8720.00     0.045
  8730.00     0.080
  8740.00     0.050
  8750.00     0.095
  8760.00     0.075
  8770.00     0.065
  8780.00     0.015
  8790.00     0.090
  8800.00     0.025
  8810.00     0.045
  8820.00     0.050
  8830.00     0.055
  8840.00     0.065
  8850.00     0.060
  8860.00     0.045
  8870.00     0.060
  8880.00     0.030
  8890.00     0.050
  8900.00     0.055
  8910.00     0.045
  8920.00     0.035
  8930.00     0.085
  8940.00     0.020
  8950.00     0.030
  8960.00     0.110
  8970.00     0.095
  8980.00     0.045
  8990.00     0.060
  9000.00     0.095
  9010.00     0.025
  9020.00     0.075
  9030.00     0.030
  9040.00     0.065
  9050.00     0.070
  9060.00     0.045
  9070.00     0.040
  9080.00     0.070
  9090.00     0.020
  9100.00     0.055
  9110.00     0.045
  9120.00     0.090
  9130.00     0.080
  9140.00     0.040
  9150.00     0.050
  9160.00     0.075
  9170.00     0.095
  9180.00     0.100
  9190.00     0.020
  9200.00     0.030
  9210.00     0.060
  9220.00     0.080
  9230.00     0.060
  9240.00     0.065
  9250.00     0.060
  9260.00     0.040
  9270.00     0.060
  9280.00     0.095
  9290.00     0.065
  9300.00     0.055
  9310.00     0.040
  9320.00     0.035
  9330.00     0.035
  9340.00     0.065
  9350.00     0.055
  9360.00     0.045
  9370.00     0.050
  9380.00     0.055
  9390.00     0.050
  9400.00     0.070
  9410.00     0.050
  9420.00     0.040
  9430.00     0.110
  9440.00     0.055
  9450.00     0.090
  9460.00     0.040
  9470.00     0.040
  9480.00     0.035
  9490.00     0.045
  9500.00     0.075
  9510.00     0.050
  9520.00     0.055
  9530.00     0.080
  9540.00     0.055
  9550.00     0.080
  9560.00     0.035
  9570.00     0.055
  9580.00     0.070
  9590.00     0.045
  9600.00     0.085
  9610.00     0.050
  9620.00     0.065
  9630.00     0.050
  9640.00     0.100
  9650.00     0.095
  9660.00     0.040
  9670.00     0.055
  9680.00     0.035
  9690.00     0.065
  9700.00     0.060
  9710.00     0.030
  9720.00     0.045
  9730.00     0.030
  9740.00     0.105
  9750.00     0.020
  9760.00     0.040
  9770.00     0.060
  9780.00     0.055
  9790.00     0.035
  9800.00     0.035
  9810.00     0.070
  9820.00     0.045
  9830.00     0.095
  9840.00     0.090
  9850.00     0.060
  9860.00     0.040
  9870.00     0.060
  9880.00     0.045
  9890.00     0.095
  9900.00     0.065
  9910.00     0.050
  9920.00     0.060
  9930.00     0.040
  9940.00     0.050
  9950.00     0.045
  9960.00     0.045
  9970.00     0.030
  9980.00     0.030
  9990.00     0.055
 10000.00     0.060
 10010.00     0.070
 10020.00     0.060
 10030.00     0.055
 10040.00     0.080
 10050.00     0.010
 10060.00     0.060
 10070.00     0.070
 10080.00     0.055
 10090.00     0.065
 10100.00     0.065
 10110.00     0.035
 10120.00     0.040
 10130.00     0.055
 10140.00     0.045
 10150.00     0.050
 10160.00     0.080
 10170.00     0.030
 10180.00     0.060
 10190.00     0.080
 10200.00     0.025
 10210.00     0.050
 10220.00     0.065
 10230.00     0.070
 10240.00     0.030
 10250.00     0.065
 10260.00     0.035
 10270.00     0.060
 10280.00     0.065
 10290.00     0.075
 10300.00     0.035
 10310.00     0.075
 10320.00     0.030
 10330.00     0.060
 10340.00     0.020
 10350.00     0.100
 10360.00     0.035
 10370.00     0.065
 10380.00     0.060
 10390.00     0.070
 10400.00     0.060
 10410.00     0.040
 10420.00     0.075
 10430.00     0.035
 10440.00     0.095
 10450.00     0.025
 10460.00     0.010
 10470.00     0.050
 10480.00     0.065
 10490.00     0.080
 10500.00     0.020
 10510.00     0.100
 10520.00     0.060
 10530.00     0.070
 10540.00     0.025
 10550.00     0.090
 10560.00     0.035
 10570.00     0.045
 10580.00     0.100
 10590.00    -0.010
 10600.00     0.095
 10610.00     0.040
 10620.00     0.065
 10630.00     0.095
 10640.00     0.075
 10650.00     0.070
 10660.00     0.105
 10670.00     0.075
 10680.00     0.035
 10690.00     0.030
 10700.00     0.020
 10710.00     0.050
 10720.00     0.040
 10730.00     0.055
 10740.00     0.050
 10750.00     0.040
 10760.00    -0.005
 10770.00     0.020
 10780.00     0.065
 10790.00     0.050
 10800.00     0.060
 10810.00     0.060
 10820.00     0.075
 10830.00     0.075
 10840.00     0.035
 10850.00     0.020
 10860.00     0.075
 10870.00     0.075
 10880.00     0.055
 10890.00     0.040
 10900.00     0.000
 10910.00     0.110
 10920.00     0.040
 10930.00     0.055
 10940.00     0.100
 10950.00     0.030
 10960.00     0.020
 10970.00     0.065
 10980.00     0.035
 10990.00     0.090
 11000.00     0.065
 11010.00     0.035
 11020.00     0.060
 11030.00     0.045
 11040.00     0.055
 11050.00     0.005
 11060.00     0.060
 11070.00     0.050
 11080.00     0.050
 11090.00     0.075
 11100.00     0.050
 11110.00     0.030
 11120.00     0.050
 11130.00     0.080
 11140.00     0.055
 11150.00     0.050
 11160.00     0.070
 11170.00     0.065
 11180.00     0.050
 11190.00     0.015
 11200.00     0.065
 11210.00     0.050
 11220.00     0.045
 11230.00     0.055
 11240.00     0.050
 11250.00     0.075
 11260.00     0.100
 11270.00     0.090
 11280.00     0.080
 11290.00     0.060
 11300.00     0.030
 11310.00     0.080
 11320.00     0.090
 11330.00     0.035
 11340.00     0.030
 11350.00     0.035
 11360.00    -0.020
 11370.00    -0.010
 11380.00     0.065
 11390.00     0.035
 11400.00     0.030
 11410.00     0.050
 11420.00     0.120
 11430.00     0.080
 11440.00     0.110
 11450.00     0.050
 11460.00     0.050
 11470.00     0.100
 11480.00     0.080
 11490.00     0.095
 11500.00     0.105
 11510.00     0.090
 11520.00     0.070
 11530.00     0.095
 11540.00     0.055
 11550.00     0.075
 11560.00     0.085
 11570.00     0.015
 11580.00    -0.040
 11590.00    -0.005
 11600.00    -0.030
 11610.00    -0.025
 11620.00     0.020
 11630.00     0.025
 11640.00     0.025
 11650.00     0.080
 11660.00     0.050
 11670.00     0.045
 11680.00     0.075
 11690.00     0.060
 11700.00     0.065
 11710.00     0.045
 11720.00     0.065
 11730.00     0.065
 11740.00     0.045
 11750.00     0.030
 11760.00     0.030
 11770.00     0.060
 11780.00     0.070
 11790.00     0.105
 11800.00     0.090
 11810.00     0.080
 11820.00     0.085
 11830.00     0.095
 11840.00     0.070
 11850.00     0.080
 11860.00     0.055
 11870.00     0.015
 11880.00    -0.085
 11890.00    -0.130
 11900.00    -0.140
 11910.00     0.065
 11920.00     0.080
 11930.00     0.045
 11940.00     0.030
 11950.00     0.040
 11960.00     0.045
 11970.00     0.065
 11980.00     0.010
 11990.00     0.035
 12000.00     0.065

