#== Filter Data - Lambda 9 Spectrophotometer ==
#  Kitt Peak National Observatory - NOAO
#------------------------------------------------
#Filter: 1NM/120NMPERMIN/0.5S  300 TO 1200NM
#Date: 08/06/03   Time: 13:45:09  Operator: HS
#cwl=  4744.90A  fwhm= 1518.68A  Tmax= 92.97% at  5010.00A
#Tcutoff=  2.00 %  Slitsize = 10 A
#fwhm spans 3985.56A to 5504.24A
#90%  spans 4363.19A to 5414.59A
#bw90 is  0.692; Tmin90/Tmax is  0.860
#No data smoothing
#
#Npts=  901     Disp= 10.00A/Interval
#*****
  3000.00    -0.005
  3010.00    -0.005
  3020.00    -0.005
  3030.00    -0.005
  3040.00    -0.005
  3050.00    -0.005
  3060.00    -0.005
  3070.00    -0.005
  3080.00    -0.005
  3090.00    -0.005
  3100.00    -0.005
  3110.00    -0.005
  3120.00    -0.005
  3130.00    -0.005
  3140.00    -0.005
  3150.00    -0.005
  3160.00    -0.005
  3170.00    -0.005
  3180.00    -0.015
  3190.00    -0.025
  3200.00    -0.005
  3210.00    -0.005
  3220.00    -0.005
  3230.00    -0.005
  3240.00    -0.005
  3250.00    -0.005
  3260.00    -0.005
  3270.00    -0.005
  3280.00    -0.005
  3290.00    -0.005
  3300.00    -0.005
  3310.00    -0.005
  3320.00    -0.005
  3330.00    -0.005
  3340.00    -0.005
  3350.00    -0.005
  3360.00    -0.005
  3370.00    -0.005
  3380.00    -0.005
  3390.00    -0.005
  3400.00    -0.005
  3410.00    -0.005
  3420.00    -0.005
  3430.00    -0.005
  3440.00    -0.005
  3450.00    -0.005
  3460.00    -0.005
  3470.00    -0.005
  3480.00    -0.005
  3490.00    -0.005
  3500.00    -0.005
  3510.00    -0.005
  3520.00    -0.005
  3530.00    -0.005
  3540.00    -0.005
  3550.00    -0.005
  3560.00    -0.005
  3570.00    -0.005
  3580.00    -0.005
  3590.00    -0.005
  3600.00    -0.005
  3610.00    -0.005
  3620.00    -0.005
  3630.00    -0.005
  3640.00    -0.005
  3650.00     0.000
  3660.00    -0.005
  3670.00     0.000
  3680.00     0.000
  3690.00     0.000
  3700.00     0.000
  3710.00     0.000
  3720.00     0.005
  3730.00     0.005
  3740.00     0.005
  3750.00     0.005
  3760.00     0.005
  3770.00     0.005
  3780.00    -0.005
  3790.00     0.000
  3800.00     0.000
  3810.00     0.005
  3820.00     0.005
  3830.00     0.005
  3840.00     0.010
  3850.00     0.035
  3860.00     0.090
  3870.00     0.240
  3880.00     0.570
  3890.00     1.225
  3900.00     2.380
  3910.00     4.250
  3920.00     7.065
  3930.00    10.915
  3940.00    15.900
  3950.00    21.915
  3960.00    28.715
  3970.00    35.930
  3980.00    42.965
  3990.00    49.300
  4000.00    54.440
  4010.00    58.380
  4020.00    61.170
  4030.00    62.945
  4040.00    64.250
  4050.00    65.175
  4060.00    65.995
  4070.00    66.755
  4080.00    67.875
  4090.00    68.975
  4100.00    70.125
  4110.00    71.530
  4120.00    72.795
  4130.00    74.075
  4140.00    75.145
  4150.00    76.075
  4160.00    76.865
  4170.00    77.525
  4180.00    78.070
  4190.00    78.520
  4200.00    79.035
  4210.00    79.420
  4220.00    79.920
  4230.00    80.430
  4240.00    80.895
  4250.00    81.440
  4260.00    81.940
  4270.00    82.345
  4280.00    82.770
  4290.00    82.930
  4300.00    83.135
  4310.00    83.275
  4320.00    83.320
  4330.00    83.355
  4340.00    83.390
  4350.00    83.455
  4360.00    83.585
  4370.00    83.875
  4380.00    84.125
  4390.00    84.475
  4400.00    84.875
  4410.00    85.375
  4420.00    85.890
  4430.00    86.235
  4440.00    86.590
  4450.00    86.935
  4460.00    87.085
  4470.00    87.085
  4480.00    86.940
  4490.00    86.740
  4500.00    86.400
  4510.00    85.880
  4520.00    85.435
  4530.00    85.050
  4540.00    84.620
  4550.00    84.415
  4560.00    84.235
  4570.00    84.280
  4580.00    84.480
  4590.00    84.820
  4600.00    85.300
  4610.00    85.920
  4620.00    86.610
  4630.00    87.370
  4640.00    88.130
  4650.00    88.885
  4660.00    89.600
  4670.00    90.145
  4680.00    90.460
  4690.00    90.490
  4700.00    90.440
  4710.00    90.040
  4720.00    89.440
  4730.00    88.575
  4740.00    87.585
  4750.00    86.595
  4760.00    85.465
  4770.00    84.355
  4780.00    83.300
  4790.00    82.350
  4800.00    81.540
  4810.00    80.755
  4820.00    80.325
  4830.00    80.050
  4840.00    79.955
  4850.00    80.100
  4860.00    80.380
  4870.00    80.855
  4880.00    81.570
  4890.00    82.375
  4900.00    83.445
  4910.00    84.520
  4920.00    85.645
  4930.00    86.880
  4940.00    88.070
  4950.00    89.225
  4960.00    90.310
  4970.00    91.160
  4980.00    91.895
  4990.00    92.490
  5000.00    92.810
  5010.00    92.975
  5020.00    92.925
  5030.00    92.725
  5040.00    92.285
  5050.00    91.785
  5060.00    91.155
  5070.00    90.410
  5080.00    89.695
  5090.00    88.905
  5100.00    88.155
  5110.00    87.465
  5120.00    86.805
  5130.00    86.240
  5140.00    85.795
  5150.00    85.410
  5160.00    85.115
  5170.00    84.960
  5180.00    84.830
  5190.00    84.865
  5200.00    85.045
  5210.00    85.240
  5220.00    85.500
  5230.00    85.810
  5240.00    86.290
  5250.00    86.755
  5260.00    87.220
  5270.00    87.780
  5280.00    88.310
  5290.00    88.755
  5300.00    89.180
  5310.00    89.575
  5320.00    89.880
  5330.00    90.155
  5340.00    90.210
  5350.00    90.140
  5360.00    89.830
  5370.00    89.390
  5380.00    88.655
  5390.00    87.670
  5400.00    86.295
  5410.00    84.670
  5420.00    82.510
  5430.00    79.935
  5440.00    76.830
  5450.00    73.200
  5460.00    69.105
  5470.00    64.480
  5480.00    59.450
  5490.00    54.225
  5500.00    48.790
  5510.00    43.365
  5520.00    38.095
  5530.00    33.120
  5540.00    28.575
  5550.00    24.465
  5560.00    20.740
  5570.00    17.500
  5580.00    14.710
  5590.00    12.385
  5600.00    10.385
  5610.00     8.675
  5620.00     7.255
  5630.00     6.120
  5640.00     5.145
  5650.00     4.340
  5660.00     3.670
  5670.00     3.095
  5680.00     2.625
  5690.00     2.240
  5700.00     1.915
  5710.00     1.640
  5720.00     1.405
  5730.00     1.210
  5740.00     1.045
  5750.00     0.905
  5760.00     0.785
  5770.00     0.680
  5780.00     0.595
  5790.00     0.520
  5800.00     0.455
  5810.00     0.400
  5820.00     0.355
  5830.00     0.315
  5840.00     0.275
  5850.00     0.245
  5860.00     0.220
  5870.00     0.195
  5880.00     0.175
  5890.00     0.155
  5900.00     0.140
  5910.00     0.125
  5920.00     0.115
  5930.00     0.100
  5940.00     0.095
  5950.00     0.085
  5960.00     0.075
  5970.00     0.065
  5980.00     0.060
  5990.00     0.055
  6000.00     0.050
  6010.00     0.045
  6020.00     0.040
  6030.00     0.035
  6040.00     0.035
  6050.00     0.030
  6060.00     0.030
  6070.00     0.025
  6080.00     0.025
  6090.00     0.020
  6100.00     0.020
  6110.00     0.020
  6120.00     0.015
  6130.00     0.015
  6140.00     0.015
  6150.00     0.010
  6160.00     0.010
  6170.00     0.010
  6180.00     0.010
  6190.00     0.010
  6200.00     0.005
  6210.00     0.005
  6220.00     0.005
  6230.00     0.005
  6240.00     0.005
  6250.00     0.005
  6260.00     0.005
  6270.00     0.005
  6280.00     0.000
  6290.00     0.000
  6300.00     0.000
  6310.00     0.000
  6320.00     0.000
  6330.00     0.000
  6340.00     0.000
  6350.00     0.000
  6360.00     0.000
  6370.00     0.000
  6380.00     0.000
  6390.00     0.000
  6400.00     0.000
  6410.00     0.000
  6420.00     0.000
  6430.00     0.000
  6440.00     0.000
  6450.00     0.000
  6460.00     0.000
  6470.00     0.000
  6480.00     0.000
  6490.00     0.000
  6500.00     0.000
  6510.00     0.000
  6520.00     0.000
  6530.00     0.000
  6540.00     0.000
  6550.00     0.000
  6560.00    -0.005
  6570.00     0.000
  6580.00     0.000
  6590.00     0.000
  6600.00    -0.005
  6610.00    -0.005
  6620.00    -0.005
  6630.00    -0.005
  6640.00     0.000
  6650.00    -0.005
  6660.00    -0.005
  6670.00    -0.005
  6680.00    -0.005
  6690.00    -0.005
  6700.00     0.000
  6710.00     0.000
  6720.00    -0.005
  6730.00    -0.005
  6740.00    -0.005
  6750.00    -0.005
  6760.00     0.000
  6770.00    -0.005
  6780.00    -0.005
  6790.00    -0.005
  6800.00     0.000
  6810.00    -0.005
  6820.00    -0.005
  6830.00     0.000
  6840.00    -0.005
  6850.00    -0.005
  6860.00    -0.005
  6870.00    -0.005
  6880.00    -0.005
  6890.00    -0.005
  6900.00    -0.030
  6910.00    -0.005
  6920.00    -0.005
  6930.00    -0.005
  6940.00    -0.005
  6950.00    -0.005
  6960.00    -0.005
  6970.00    -0.005
  6980.00     0.000
  6990.00    -0.005
  7000.00    -0.005
  7010.00    -0.005
  7020.00     0.000
  7030.00    -0.005
  7040.00    -0.005
  7050.00    -0.005
  7060.00    -0.005
  7070.00    -0.005
  7080.00    -0.005
  7090.00     0.000
  7100.00    -0.005
  7110.00    -0.005
  7120.00    -0.005
  7130.00    -0.005
  7140.00    -0.005
  7150.00    -0.005
  7160.00     0.000
  7170.00    -0.005
  7180.00    -0.005
  7190.00     0.000
  7200.00    -0.005
  7210.00    -0.005
  7220.00    -0.005
  7230.00     0.000
  7240.00    -0.005
  7250.00     0.000
  7260.00    -0.005
  7270.00    -0.005
  7280.00    -0.005
  7290.00    -0.005
  7300.00    -0.005
  7310.00     0.000
  7320.00    -0.005
  7330.00    -0.005
  7340.00     0.000
  7350.00    -0.005
  7360.00    -0.005
  7370.00    -0.005
  7380.00     0.000
  7390.00     0.000
  7400.00    -0.005
  7410.00    -0.005
  7420.00    -0.005
  7430.00     0.000
  7440.00    -0.005
  7450.00    -0.005
  7460.00    -0.005
  7470.00     0.000
  7480.00     0.000
  7490.00    -0.005
  7500.00    -0.005
  7510.00     0.000
  7520.00     0.000
  7530.00     0.000
  7540.00     0.000
  7550.00     0.000
  7560.00     0.000
  7570.00     0.000
  7580.00     0.000
  7590.00     0.005
  7600.00     0.005
  7610.00     0.005
  7620.00     0.010
  7630.00     0.010
  7640.00     0.010
  7650.00     0.015
  7660.00     0.015
  7670.00     0.010
  7680.00     0.010
  7690.00     0.010
  7700.00     0.005
  7710.00     0.005
  7720.00     0.005
  7730.00     0.005
  7740.00     0.000
  7750.00     0.000
  7760.00     0.000
  7770.00     0.000
  7780.00     0.000
  7790.00     0.000
  7800.00     0.000
  7810.00     0.000
  7820.00     0.000
  7830.00     0.000
  7840.00     0.000
  7850.00    -0.005
  7860.00     0.000
  7870.00     0.000
  7880.00     0.000
  7890.00     0.000
  7900.00     0.000
  7910.00     0.000
  7920.00     0.000
  7930.00    -0.005
  7940.00    -0.005
  7950.00     0.000
  7960.00     0.000
  7970.00    -0.005
  7980.00    -0.005
  7990.00    -0.005
  8000.00    -0.005
  8010.00     0.000
  8020.00     0.000
  8030.00    -0.005
  8040.00     0.000
  8050.00     0.000
  8060.00     0.000
  8070.00    -0.005
  8080.00     0.000
  8090.00    -0.005
  8100.00     0.000
  8110.00    -0.005
  8120.00     0.000
  8130.00    -0.005
  8140.00     0.005
  8150.00     0.000
  8160.00     0.000
  8170.00     0.005
  8180.00     0.000
  8190.00    -0.005
  8200.00    -0.005
  8210.00     0.000
  8220.00     0.005
  8230.00     0.005
  8240.00     0.000
  8250.00     0.000
  8260.00     0.000
  8270.00     0.000
  8280.00     0.005
  8290.00     0.000
  8300.00     0.000
  8310.00     0.000
  8320.00     0.000
  8330.00     0.000
  8340.00     0.000
  8350.00     0.000
  8360.00     0.005
  8370.00     0.000
  8380.00     0.000
  8390.00     0.000
  8400.00     0.005
  8410.00     0.005
  8420.00     0.005
  8430.00     0.000
  8440.00     0.005
  8450.00     0.000
  8460.00     0.000
  8470.00     0.000
  8480.00     0.005
  8490.00     0.005
  8500.00     0.005
  8510.00    -0.005
  8520.00     0.005
  8530.00     0.000
  8540.00     0.005
  8550.00    -0.005
  8560.00    -0.005
  8570.00     0.005
  8580.00     0.005
  8590.00     0.000
  8600.00    -0.005
  8610.00    -0.030
  8620.00     0.040
  8630.00    -0.005
  8640.00     0.005
  8650.00     0.005
  8660.00     0.015
  8670.00     0.070
  8680.00     0.000
  8690.00    -0.030
  8700.00     0.030
  8710.00    -0.025
  8720.00    -0.020
  8730.00     0.005
  8740.00     0.020
  8750.00     0.035
  8760.00    -0.010
  8770.00     0.015
  8780.00     0.015
  8790.00     0.005
  8800.00     0.065
  8810.00     0.015
  8820.00    -0.010
  8830.00     0.020
  8840.00    -0.005
  8850.00     0.000
  8860.00     0.015
  8870.00     0.000
  8880.00     0.015
  8890.00    -0.005
  8900.00     0.025
  8910.00    -0.005
  8920.00    -0.015
  8930.00     0.000
  8940.00     0.045
  8950.00     0.015
  8960.00     0.055
  8970.00    -0.025
  8980.00     0.010
  8990.00    -0.040
  9000.00     0.015
  9010.00     0.035
  9020.00     0.045
  9030.00     0.030
  9040.00    -0.010
  9050.00     0.030
  9060.00    -0.005
  9070.00    -0.005
  9080.00     0.050
  9090.00     0.010
  9100.00     0.035
  9110.00    -0.030
  9120.00     0.005
  9130.00    -0.005
  9140.00     0.010
  9150.00     0.035
  9160.00     0.005
  9170.00    -0.055
  9180.00    -0.015
  9190.00    -0.025
  9200.00    -0.015
  9210.00    -0.035
  9220.00     0.060
  9230.00     0.030
  9240.00    -0.025
  9250.00    -0.010
  9260.00     0.030
  9270.00    -0.005
  9280.00     0.035
  9290.00    -0.050
  9300.00    -0.025
  9310.00     0.010
  9320.00     0.060
  9330.00     0.040
  9340.00     0.055
  9350.00     0.025
  9360.00     0.015
  9370.00     0.020
  9380.00    -0.010
  9390.00     0.010
  9400.00    -0.015
  9410.00    -0.040
  9420.00     0.000
  9430.00     0.085
  9440.00     0.035
  9450.00     0.035
  9460.00     0.035
  9470.00     0.065
  9480.00     0.010
  9490.00    -0.015
  9500.00     0.025
  9510.00     0.020
  9520.00     0.055
  9530.00     0.040
  9540.00     0.010
  9550.00     0.020
  9560.00    -0.010
  9570.00    -0.030
  9580.00     0.020
  9590.00     0.050
  9600.00     0.015
  9610.00     0.000
  9620.00     0.010
  9630.00     0.025
  9640.00    -0.010
  9650.00     0.000
  9660.00     0.050
  9670.00    -0.045
  9680.00     0.020
  9690.00     0.020
  9700.00     0.015
  9710.00     0.010
  9720.00     0.030
  9730.00     0.005
  9740.00     0.015
  9750.00     0.025
  9760.00    -0.010
  9770.00     0.030
  9780.00     0.035
  9790.00    -0.030
  9800.00    -0.005
  9810.00     0.035
  9820.00     0.045
  9830.00     0.020
  9840.00    -0.005
  9850.00     0.035
  9860.00     0.045
  9870.00    -0.010
  9880.00    -0.030
  9890.00    -0.010
  9900.00     0.030
  9910.00     0.005
  9920.00    -0.015
  9930.00     0.040
  9940.00     0.020
  9950.00     0.040
  9960.00    -0.040
  9970.00     0.035
  9980.00     0.040
  9990.00     0.020
 10000.00     0.010
 10010.00     0.010
 10020.00    -0.015
 10030.00    -0.015
 10040.00     0.020
 10050.00     0.015
 10060.00     0.050
 10070.00    -0.015
 10080.00     0.020
 10090.00     0.045
 10100.00     0.020
 10110.00     0.055
 10120.00     0.020
 10130.00    -0.015
 10140.00    -0.005
 10150.00    -0.010
 10160.00     0.030
 10170.00     0.010
 10180.00     0.050
 10190.00     0.050
 10200.00     0.000
 10210.00     0.035
 10220.00     0.040
 10230.00     0.065
 10240.00     0.015
 10250.00     0.040
 10260.00     0.050
 10270.00     0.060
 10280.00     0.040
 10290.00     0.010
 10300.00     0.040
 10310.00     0.045
 10320.00    -0.025
 10330.00    -0.060
 10340.00    -0.010
 10350.00     0.020
 10360.00     0.035
 10370.00     0.050
 10380.00    -0.010
 10390.00    -0.020
 10400.00     0.015
 10410.00     0.020
 10420.00     0.010
 10430.00    -0.015
 10440.00     0.030
 10450.00     0.005
 10460.00     0.055
 10470.00     0.010
 10480.00     0.065
 10490.00    -0.015
 10500.00    -0.030
 10510.00     0.040
 10520.00    -0.030
 10530.00    -0.015
 10540.00     0.000
 10550.00     0.020
 10560.00     0.030
 10570.00    -0.040
 10580.00    -0.015
 10590.00    -0.010
 10600.00     0.120
 10610.00     0.010
 10620.00    -0.020
 10630.00     0.055
 10640.00    -0.010
 10650.00     0.005
 10660.00     0.080
 10670.00     0.030
 10680.00     0.050
 10690.00     0.050
 10700.00     0.020
 10710.00    -0.025
 10720.00     0.040
 10730.00     0.020
 10740.00     0.010
 10750.00    -0.005
 10760.00     0.005
 10770.00     0.100
 10780.00     0.025
 10790.00     0.020
 10800.00    -0.035
 10810.00     0.000
 10820.00     0.050
 10830.00     0.070
 10840.00     0.000
 10850.00    -0.005
 10860.00     0.065
 10870.00     0.020
 10880.00     0.030
 10890.00     0.055
 10900.00     0.055
 10910.00    -0.025
 10920.00     0.010
 10930.00     0.010
 10940.00    -0.010
 10950.00     0.090
 10960.00     0.040
 10970.00    -0.040
 10980.00     0.110
 10990.00     0.070
 11000.00     0.005
 11010.00     0.045
 11020.00     0.065
 11030.00     0.035
 11040.00     0.075
 11050.00     0.060
 11060.00     0.060
 11070.00     0.035
 11080.00     0.070
 11090.00    -0.010
 11100.00     0.030
 11110.00     0.140
 11120.00     0.080
 11130.00     0.150
 11140.00     0.070
 11150.00     0.075
 11160.00     0.085
 11170.00     0.095
 11180.00     0.065
 11190.00     0.020
 11200.00     0.010
 11210.00     0.025
 11220.00    -0.015
 11230.00     0.040
 11240.00     0.130
 11250.00     0.005
 11260.00    -0.015
 11270.00     0.090
 11280.00     0.075
 11290.00     0.160
 11300.00     0.100
 11310.00     0.110
 11320.00     0.055
 11330.00     0.015
 11340.00    -0.105
 11350.00    -0.135
 11360.00     0.075
 11370.00     0.060
 11380.00     0.095
 11390.00     0.140
 11400.00     0.100
 11410.00     0.060
 11420.00     0.140
 11430.00     0.035
 11440.00    -0.040
 11450.00     0.055
 11460.00     0.130
 11470.00     0.135
 11480.00     0.170
 11490.00     0.145
 11500.00     0.110
 11510.00     0.140
 11520.00     0.095
 11530.00     0.145
 11540.00     0.070
 11550.00     0.110
 11560.00     0.080
 11570.00     0.090
 11580.00     0.035
 11590.00     0.085
 11600.00     0.065
 11610.00     0.060
 11620.00     0.055
 11630.00     0.085
 11640.00     0.060
 11650.00     0.080
 11660.00     0.050
 11670.00     0.055
 11680.00     0.105
 11690.00     0.160
 11700.00     0.180
 11710.00     0.125
 11720.00     0.180
 11730.00     0.150
 11740.00     0.135
 11750.00     0.175
 11760.00     0.130
 11770.00     0.145
 11780.00     0.145
 11790.00     0.240
 11800.00     0.220
 11810.00     0.245
 11820.00     0.195
 11830.00     0.195
 11840.00     0.235
 11850.00     0.245
 11860.00     0.195
 11870.00     0.115
 11880.00     0.100
 11890.00    -0.080
 11900.00     0.015
 11910.00     0.230
 11920.00     0.170
 11930.00     0.225
 11940.00     0.225
 11950.00     0.260
 11960.00     0.215
 11970.00     0.225
 11980.00     0.265
 11990.00     0.270
 12000.00     0.275

