#== Filter Data - Lambda 9 Spectrophotometer ==
#  Kitt Peak National Observatory - NOAO
#------------------------------------------------
#Filter: 1NM/120NMPERMIN/0.5S  300-1200NM  22.6C
#Date: 07/21/05   Time: 10:53:11  Operator: HS
#cwl=  5357.87A  fwhm= 829.86A  Tmax= 87.90% at  5190.00A
#Tcutoff=  2.00 %  Slitsize = 10 A
#fwhm spans 4942.94A to 5772.80A
#90%  spans 5046.35A to 5454.35A
#bw90 is  0.492; Tmin90/Tmax is  0.900
#No data smoothing
#
#Npts=  901     Disp= 10.00A/Interval
#*****
  3000.00    -0.010
  3010.00    -0.005
  3020.00    -0.015
  3030.00     0.005
  3040.00    -0.005
  3050.00     0.000
  3060.00     0.005
  3070.00     0.005
  3080.00     0.000
  3090.00     0.010
  3100.00    -0.010
  3110.00    -0.005
  3120.00     0.005
  3130.00    -0.005
  3140.00    -0.010
  3150.00     0.005
  3160.00     0.000
  3170.00    -0.005
  3180.00     0.005
  3190.00    -0.005
  3200.00    -0.005
  3210.00     0.000
  3220.00     0.000
  3230.00     0.000
  3240.00     0.000
  3250.00    -0.010
  3260.00     0.000
  3270.00    -0.010
  3280.00     0.000
  3290.00     0.000
  3300.00    -0.005
  3310.00    -0.005
  3320.00    -0.005
  3330.00     0.000
  3340.00     0.000
  3350.00     0.005
  3360.00    -0.005
  3370.00     0.000
  3380.00    -0.005
  3390.00     0.000
  3400.00     0.000
  3410.00     0.000
  3420.00    -0.005
  3430.00    -0.005
  3440.00     0.000
  3450.00     0.005
  3460.00    -0.005
  3470.00    -0.005
  3480.00     0.000
  3490.00    -0.010
  3500.00    -0.010
  3510.00     0.000
  3520.00     0.000
  3530.00     0.000
  3540.00     0.000
  3550.00    -0.005
  3560.00     0.000
  3570.00    -0.005
  3580.00    -0.005
  3590.00     0.000
  3600.00     0.000
  3610.00     0.000
  3620.00    -0.005
  3630.00     0.000
  3640.00    -0.005
  3650.00     0.000
  3660.00     0.000
  3670.00    -0.005
  3680.00    -0.005
  3690.00     0.000
  3700.00     0.000
  3710.00     0.000
  3720.00     0.000
  3730.00     0.000
  3740.00     0.005
  3750.00     0.000
  3760.00    -0.010
  3770.00    -0.005
  3780.00    -0.015
  3790.00     0.005
  3800.00     0.000
  3810.00     0.005
  3820.00     0.000
  3830.00     0.000
  3840.00     0.005
  3850.00     0.005
  3860.00     0.000
  3870.00     0.000
  3880.00     0.000
  3890.00     0.000
  3900.00     0.000
  3910.00     0.005
  3920.00     0.000
  3930.00     0.005
  3940.00     0.005
  3950.00     0.005
  3960.00     0.005
  3970.00     0.005
  3980.00    -0.005
  3990.00     0.000
  4000.00     0.000
  4010.00     0.005
  4020.00     0.005
  4030.00    -0.005
  4040.00     0.000
  4050.00     0.005
  4060.00     0.000
  4070.00     0.000
  4080.00     0.000
  4090.00     0.000
  4100.00     0.005
  4110.00    -0.005
  4120.00     0.000
  4130.00    -0.005
  4140.00     0.005
  4150.00     0.005
  4160.00     0.000
  4170.00     0.000
  4180.00     0.000
  4190.00     0.005
  4200.00     0.000
  4210.00     0.000
  4220.00    -0.005
  4230.00     0.005
  4240.00     0.000
  4250.00     0.000
  4260.00     0.000
  4270.00     0.005
  4280.00     0.005
  4290.00     0.000
  4300.00     0.000
  4310.00    -0.005
  4320.00     0.000
  4330.00     0.005
  4340.00     0.005
  4350.00     0.000
  4360.00     0.000
  4370.00     0.005
  4380.00     0.000
  4390.00    -0.005
  4400.00     0.000
  4410.00     0.005
  4420.00     0.000
  4430.00     0.005
  4440.00     0.000
  4450.00     0.000
  4460.00     0.005
  4470.00     0.000
  4480.00     0.000
  4490.00     0.000
  4500.00     0.000
  4510.00     0.000
  4520.00     0.005
  4530.00    -0.005
  4540.00     0.005
  4550.00     0.000
  4560.00    -0.005
  4570.00     0.000
  4580.00    -0.005
  4590.00     0.000
  4600.00    -0.005
  4610.00     0.000
  4620.00     0.000
  4630.00     0.000
  4640.00     0.000
  4650.00     0.000
  4660.00     0.005
  4670.00     0.005
  4680.00     0.000
  4690.00     0.005
  4700.00     0.010
  4710.00     0.010
  4720.00     0.020
  4730.00     0.025
  4740.00     0.040
  4750.00     0.070
  4760.00     0.110
  4770.00     0.165
  4780.00     0.260
  4790.00     0.410
  4800.00     0.635
  4810.00     1.015
  4820.00     1.515
  4830.00     2.310
  4840.00     3.425
  4850.00     5.020
  4860.00     7.040
  4870.00     9.790
  4880.00    13.205
  4890.00    17.180
  4900.00    21.670
  4910.00    26.450
  4920.00    31.625
  4930.00    36.795
  4940.00    42.510
  4950.00    47.405
  4960.00    52.500
  4970.00    56.760
  4980.00    61.260
  4990.00    65.245
  5000.00    68.165
  5010.00    70.855
  5020.00    74.110
  5030.00    76.190
  5040.00    78.275
  5050.00    79.590
  5060.00    81.200
  5070.00    82.290
  5080.00    83.315
  5090.00    84.215
  5100.00    85.190
  5110.00    85.555
  5120.00    85.880
  5130.00    87.045
  5140.00    86.755
  5150.00    87.040
  5160.00    87.125
  5170.00    87.445
  5180.00    87.690
  5190.00    87.900
  5200.00    87.685
  5210.00    87.655
  5220.00    87.475
  5230.00    87.855
  5240.00    87.585
  5250.00    87.825
  5260.00    86.965
  5270.00    87.005
  5280.00    86.710
  5290.00    86.450
  5300.00    86.155
  5310.00    85.730
  5320.00    85.300
  5330.00    85.390
  5340.00    84.825
  5350.00    84.515
  5360.00    84.130
  5370.00    83.345
  5380.00    83.095
  5390.00    82.470
  5400.00    81.950
  5410.00    81.890
  5420.00    80.835
  5430.00    80.235
  5440.00    79.590
  5450.00    79.360
  5460.00    78.785
  5470.00    77.490
  5480.00    76.765
  5490.00    76.035
  5500.00    75.025
  5510.00    74.325
  5520.00    73.295
  5530.00    72.600
  5540.00    71.405
  5550.00    70.650
  5560.00    69.680
  5570.00    68.970
  5580.00    67.120
  5590.00    66.325
  5600.00    65.380
  5610.00    64.715
  5620.00    63.055
  5630.00    62.315
  5640.00    60.890
  5650.00    59.845
  5660.00    58.405
  5670.00    57.205
  5680.00    56.285
  5690.00    54.790
  5700.00    53.110
  5710.00    52.140
  5720.00    50.775
  5730.00    49.405
  5740.00    48.230
  5750.00    46.670
  5760.00    45.600
  5770.00    44.295
  5780.00    43.065
  5790.00    41.810
  5800.00    40.170
  5810.00    38.965
  5820.00    37.775
  5830.00    36.335
  5840.00    35.375
  5850.00    33.875
  5860.00    32.710
  5870.00    31.480
  5880.00    30.150
  5890.00    28.950
  5900.00    27.735
  5910.00    26.660
  5920.00    25.520
  5930.00    24.315
  5940.00    23.115
  5950.00    22.165
  5960.00    21.145
  5970.00    20.085
  5980.00    19.000
  5990.00    18.050
  6000.00    17.315
  6010.00    16.120
  6020.00    15.325
  6030.00    14.550
  6040.00    13.720
  6050.00    12.865
  6060.00    12.220
  6070.00    11.455
  6080.00    10.720
  6090.00    10.180
  6100.00     9.470
  6110.00     8.835
  6120.00     8.275
  6130.00     7.700
  6140.00     7.070
  6150.00     6.695
  6160.00     6.255
  6170.00     5.765
  6180.00     5.350
  6190.00     4.995
  6200.00     4.630
  6210.00     4.215
  6220.00     3.900
  6230.00     3.620
  6240.00     3.355
  6250.00     3.045
  6260.00     2.820
  6270.00     2.545
  6280.00     2.360
  6290.00     2.165
  6300.00     1.990
  6310.00     1.810
  6320.00     1.650
  6330.00     1.495
  6340.00     1.385
  6350.00     1.240
  6360.00     1.125
  6370.00     0.985
  6380.00     0.910
  6390.00     0.815
  6400.00     0.745
  6410.00     0.660
  6420.00     0.610
  6430.00     0.540
  6440.00     0.490
  6450.00     0.425
  6460.00     0.390
  6470.00     0.345
  6480.00     0.310
  6490.00     0.260
  6500.00     0.230
  6510.00     0.210
  6520.00     0.190
  6530.00     0.170
  6540.00     0.155
  6550.00     0.140
  6560.00     0.120
  6570.00     0.110
  6580.00     0.090
  6590.00     0.080
  6600.00     0.080
  6610.00     0.065
  6620.00     0.050
  6630.00     0.040
  6640.00     0.035
  6650.00     0.030
  6660.00     0.030
  6670.00     0.025
  6680.00     0.025
  6690.00     0.020
  6700.00     0.020
  6710.00     0.010
  6720.00     0.010
  6730.00     0.005
  6740.00     0.010
  6750.00     0.005
  6760.00     0.005
  6770.00     0.010
  6780.00     0.005
  6790.00     0.000
  6800.00    -0.005
  6810.00     0.000
  6820.00     0.000
  6830.00     0.000
  6840.00     0.000
  6850.00     0.000
  6860.00    -0.005
  6870.00     0.000
  6880.00     0.000
  6890.00     0.000
  6900.00     0.005
  6910.00     0.000
  6920.00     0.000
  6930.00     0.000
  6940.00    -0.005
  6950.00     0.000
  6960.00     0.000
  6970.00    -0.005
  6980.00    -0.010
  6990.00     0.000
  7000.00    -0.005
  7010.00    -0.005
  7020.00     0.000
  7030.00     0.000
  7040.00     0.000
  7050.00    -0.005
  7060.00    -0.005
  7070.00     0.000
  7080.00     0.000
  7090.00    -0.005
  7100.00     0.000
  7110.00     0.000
  7120.00     0.000
  7130.00    -0.005
  7140.00     0.000
  7150.00     0.000
  7160.00    -0.005
  7170.00    -0.005
  7180.00    -0.010
  7190.00     0.000
  7200.00    -0.005
  7210.00     0.000
  7220.00     0.000
  7230.00     0.000
  7240.00     0.000
  7250.00     0.000
  7260.00    -0.005
  7270.00     0.000
  7280.00     0.000
  7290.00     0.000
  7300.00     0.000
  7310.00     0.000
  7320.00     0.010
  7330.00     0.000
  7340.00    -0.010
  7350.00    -0.010
  7360.00     0.000
  7370.00     0.005
  7380.00     0.000
  7390.00     0.005
  7400.00     0.005
  7410.00     0.000
  7420.00    -0.005
  7430.00    -0.005
  7440.00     0.010
  7450.00     0.000
  7460.00    -0.005
  7470.00    -0.005
  7480.00     0.000
  7490.00    -0.005
  7500.00     0.005
  7510.00     0.000
  7520.00    -0.010
  7530.00     0.000
  7540.00    -0.010
  7550.00     0.005
  7560.00     0.005
  7570.00    -0.005
  7580.00    -0.005
  7590.00    -0.005
  7600.00     0.005
  7610.00     0.010
  7620.00     0.010
  7630.00     0.000
  7640.00     0.005
  7650.00    -0.015
  7660.00    -0.015
  7670.00     0.000
  7680.00     0.010
  7690.00     0.005
  7700.00     0.010
  7710.00     0.015
  7720.00     0.005
  7730.00     0.015
  7740.00    -0.010
  7750.00    -0.015
  7760.00    -0.010
  7770.00     0.010
  7780.00     0.015
  7790.00     0.000
  7800.00     0.015
  7810.00     0.005
  7820.00    -0.015
  7830.00    -0.005
  7840.00    -0.015
  7850.00     0.000
  7860.00    -0.020
  7870.00    -0.005
  7880.00     0.010
  7890.00     0.000
  7900.00    -0.010
  7910.00     0.020
  7920.00     0.015
  7930.00    -0.010
  7940.00     0.000
  7950.00     0.010
  7960.00     0.000
  7970.00     0.020
  7980.00     0.010
  7990.00     0.035
  8000.00     0.010
  8010.00     0.005
  8020.00     0.035
  8030.00     0.010
  8040.00     0.015
  8050.00     0.035
  8060.00     0.015
  8070.00     0.020
  8080.00     0.030
  8090.00     0.030
  8100.00     0.010
  8110.00     0.005
  8120.00     0.020
  8130.00     0.040
  8140.00     0.000
  8150.00     0.025
  8160.00     0.030
  8170.00     0.000
  8180.00    -0.015
  8190.00     0.000
  8200.00     0.030
  8210.00    -0.035
  8220.00    -0.010
  8230.00    -0.020
  8240.00     0.000
  8250.00     0.020
  8260.00    -0.045
  8270.00    -0.035
  8280.00     0.030
  8290.00    -0.035
  8300.00    -0.005
  8310.00     0.015
  8320.00     0.065
  8330.00    -0.050
  8340.00     0.030
  8350.00     0.030
  8360.00     0.035
  8370.00     0.045
  8380.00     0.050
  8390.00     0.045
  8400.00    -0.015
  8410.00    -0.085
  8420.00    -0.070
  8430.00     0.040
  8440.00     0.080
  8450.00     0.090
  8460.00     0.010
  8470.00     0.065
  8480.00     0.065
  8490.00     0.045
  8500.00     0.090
  8510.00    -0.030
  8520.00    -0.035
  8530.00     0.000
  8540.00     0.065
  8550.00    -0.085
  8560.00     0.055
  8570.00    -0.060
  8580.00     0.035
  8590.00     0.085
  8600.00     0.410
  8610.00     0.165
  8620.00     7.325
  8630.00    -0.730
  8640.00     3.500
  8650.00    -4.300
  8660.00     1.105
  8670.00    -0.675
  8680.00     4.250
  8690.00     1.570
  8700.00     2.740
  8710.00     8.080
  8720.00     0.620
  8730.00     6.150
  8740.00    -1.675
  8750.00     0.780
  8760.00     1.725
  8770.00     2.400
  8780.00    -0.370
  8790.00     2.740
  8800.00     2.690
  8810.00     1.165
  8820.00     0.075
  8830.00    -0.870
  8840.00    -2.855
  8850.00     1.230
  8860.00     0.740
  8870.00     3.410
  8880.00    -1.265
  8890.00    -0.575
  8900.00     1.705
  8910.00     2.730
  8920.00     2.835
  8930.00     0.110
  8940.00     2.805
  8950.00     2.810
  8960.00     1.205
  8970.00     0.645
  8980.00     0.625
  8990.00     1.260
  9000.00     0.960
  9010.00     0.305
  9020.00    -0.680
  9030.00     1.590
  9040.00    -0.800
  9050.00     0.755
  9060.00     2.555
  9070.00     1.675
  9080.00    -0.030
  9090.00     0.410
  9100.00     1.775
  9110.00     0.500
  9120.00     1.390
  9130.00     1.045
  9140.00     1.220
  9150.00     0.620
  9160.00     0.795
  9170.00     0.420
  9180.00     0.820
  9190.00     1.325
  9200.00    -0.385
  9210.00    -0.210
  9220.00     0.955
  9230.00     0.175
  9240.00     0.135
  9250.00    -0.030
  9260.00    -0.275
  9270.00     0.265
  9280.00    -0.460
  9290.00     0.530
  9300.00     0.795
  9310.00     0.485
  9320.00     0.750
  9330.00     0.800
  9340.00     1.060
  9350.00     0.750
  9360.00     0.200
  9370.00     0.770
  9380.00     1.070
  9390.00     0.365
  9400.00    -0.090
  9410.00     0.525
  9420.00     1.160
  9430.00     0.530
  9440.00     1.450
  9450.00     0.070
  9460.00     1.075
  9470.00     0.515
  9480.00    -0.330
  9490.00     0.180
  9500.00     0.450
  9510.00     0.575
  9520.00     0.000
  9530.00     0.050
  9540.00     0.350
  9550.00    -0.095
  9560.00     0.120
  9570.00     0.855
  9580.00     0.510
  9590.00     0.400
  9600.00     0.745
  9610.00    -0.095
  9620.00     0.450
  9630.00     0.340
  9640.00     0.600
  9650.00     0.105
  9660.00     0.355
  9670.00    -0.055
  9680.00     0.130
  9690.00     0.440
  9700.00    -0.145
  9710.00     0.230
  9720.00     0.560
  9730.00     0.245
  9740.00     0.120
  9750.00     0.255
  9760.00     0.075
  9770.00     0.485
  9780.00     0.815
  9790.00     0.040
  9800.00     0.460
  9810.00     0.565
  9820.00     0.180
  9830.00     0.320
  9840.00     0.130
  9850.00     0.245
  9860.00     0.225
  9870.00     0.180
  9880.00     0.275
  9890.00     0.275
  9900.00     0.290
  9910.00     0.085
  9920.00     0.255
  9930.00     0.310
  9940.00     0.010
  9950.00     0.125
  9960.00     0.265
  9970.00     0.460
  9980.00     0.235
  9990.00     0.345
 10000.00     0.335
 10010.00     0.335
 10020.00     0.145
 10030.00     0.155
 10040.00     0.250
 10050.00     0.290
 10060.00     0.315
 10070.00     0.170
 10080.00     0.230
 10090.00     0.340
 10100.00     0.405
 10110.00     0.260
 10120.00     0.205
 10130.00     0.075
 10140.00     0.160
 10150.00     0.095
 10160.00     0.390
 10170.00     0.345
 10180.00     0.105
 10190.00     0.030
 10200.00     0.060
 10210.00     0.030
 10220.00     0.130
 10230.00     0.275
 10240.00     0.060
 10250.00     0.295
 10260.00    -0.090
 10270.00     0.235
 10280.00     0.080
 10290.00     0.355
 10300.00     0.195
 10310.00     0.255
 10320.00     0.225
 10330.00     0.180
 10340.00     0.140
 10350.00     0.210
 10360.00     0.095
 10370.00     0.005
 10380.00     0.080
 10390.00     0.010
 10400.00     0.190
 10410.00     0.105
 10420.00     0.240
 10430.00    -0.050
 10440.00     0.135
 10450.00     0.365
 10460.00     0.075
 10470.00     0.040
 10480.00     0.190
 10490.00    -0.075
 10500.00     0.160
 10510.00    -0.035
 10520.00     0.165
 10530.00     0.105
 10540.00     0.115
 10550.00     0.295
 10560.00     0.075
 10570.00     0.245
 10580.00     0.235
 10590.00     0.010
 10600.00     0.260
 10610.00     0.290
 10620.00     0.150
 10630.00     0.180
 10640.00     0.105
 10650.00     0.325
 10660.00     0.030
 10670.00     0.020
 10680.00    -0.020
 10690.00     0.070
 10700.00    -0.205
 10710.00     0.125
 10720.00     0.190
 10730.00     0.060
 10740.00     0.070
 10750.00     0.005
 10760.00     0.125
 10770.00     0.065
 10780.00     0.110
 10790.00     0.180
 10800.00     0.320
 10810.00     0.175
 10820.00     0.110
 10830.00    -0.065
 10840.00     0.005
 10850.00    -0.040
 10860.00    -0.015
 10870.00     0.190
 10880.00     0.390
 10890.00     0.020
 10900.00     0.040
 10910.00    -0.010
 10920.00     0.065
 10930.00     0.135
 10940.00     0.085
 10950.00     0.220
 10960.00     0.145
 10970.00     0.220
 10980.00     0.015
 10990.00     0.035
 11000.00     0.025
 11010.00     0.140
 11020.00     0.050
 11030.00     0.080
 11040.00     0.180
 11050.00     0.125
 11060.00     0.000
 11070.00     0.100
 11080.00     0.075
 11090.00     0.125
 11100.00    -0.015
 11110.00     0.045
 11120.00     0.110
 11130.00     0.025
 11140.00     0.065
 11150.00     0.150
 11160.00     0.130
 11170.00     0.210
 11180.00     0.045
 11190.00     0.125
 11200.00     0.055
 11210.00     0.100
 11220.00     0.060
 11230.00     0.165
 11240.00     0.150
 11250.00    -0.065
 11260.00     0.100
 11270.00     0.110
 11280.00     0.155
 11290.00     0.025
 11300.00     0.230
 11310.00     0.135
 11320.00     0.020
 11330.00     0.120
 11340.00     0.125
 11350.00     0.200
 11360.00     0.025
 11370.00     0.015
 11380.00     0.100
 11390.00     0.190
 11400.00     0.070
 11410.00     0.075
 11420.00     0.000
 11430.00     0.145
 11440.00     0.040
 11450.00     0.050
 11460.00     0.010
 11470.00     0.005
 11480.00     0.050
 11490.00     0.075
 11500.00    -0.040
 11510.00     0.100
 11520.00     0.065
 11530.00    -0.035
 11540.00     0.125
 11550.00     0.090
 11560.00    -0.015
 11570.00     0.155
 11580.00    -0.025
 11590.00     0.115
 11600.00    -0.060
 11610.00    -0.070
 11620.00    -0.100
 11630.00    -0.050
 11640.00    -0.005
 11650.00     0.165
 11660.00     0.035
 11670.00    -0.115
 11680.00     0.045
 11690.00     0.120
 11700.00     0.100
 11710.00     0.030
 11720.00     0.060
 11730.00    -0.025
 11740.00     0.045
 11750.00     0.060
 11760.00    -0.060
 11770.00    -0.065
 11780.00     0.180
 11790.00    -0.005
 11800.00    -0.115
 11810.00     0.095
 11820.00     0.015
 11830.00     0.135
 11840.00    -0.115
 11850.00     0.010
 11860.00    -0.065
 11870.00    -0.105
 11880.00    -0.355
 11890.00    -0.645
 11900.00    -0.445
 11910.00     0.070
 11920.00     0.045
 11930.00     0.005
 11940.00     0.030
 11950.00     0.090
 11960.00    -0.025
 11970.00     0.145
 11980.00     0.085
 11990.00     0.030
 12000.00     0.015

