#== Filter Data - Lambda 9 Spectrophotometer ==
#  Kitt Peak National Observatory - NOAO
#------------------------------------------------
#Filter: 1NM/120NMPERMIN/0.5S  300-1200NM  22.6C
#Date: 07/21/05   Time: 10:53:06  Operator: HS
#cwl=  8247.17A  fwhm= 1974.22A  Tmax= 96.06% at  8660.00A
#Tcutoff=  2.00 %  Slitsize = 10 A
#fwhm spans 7260.06A to 9234.28A
#90%  spans 7616.37A to 8833.26A
#bw90 is  0.616; Tmin90/Tmax is  0.826
#No data smoothing
#
#Npts=  901     Disp= 10.00A/Interval
#*****
  3000.00     0.000
  3010.00     0.000
  3020.00     0.000
  3030.00    -0.005
  3040.00     0.010
  3050.00     0.005
  3060.00     0.000
  3070.00    -0.005
  3080.00    -0.010
  3090.00     0.000
  3100.00    -0.005
  3110.00     0.000
  3120.00     0.000
  3130.00    -0.010
  3140.00     0.000
  3150.00    -0.005
  3160.00     0.000
  3170.00     0.000
  3180.00     0.005
  3190.00     0.000
  3200.00     0.000
  3210.00    -0.010
  3220.00    -0.005
  3230.00    -0.005
  3240.00     0.000
  3250.00    -0.005
  3260.00    -0.005
  3270.00    -0.005
  3280.00     0.000
  3290.00     0.000
  3300.00     0.000
  3310.00     0.000
  3320.00    -0.005
  3330.00     0.000
  3340.00     0.000
  3350.00    -0.005
  3360.00     0.000
  3370.00    -0.005
  3380.00     0.000
  3390.00     0.000
  3400.00    -0.005
  3410.00    -0.010
  3420.00    -0.005
  3430.00     0.000
  3440.00    -0.005
  3450.00     0.000
  3460.00    -0.005
  3470.00    -0.005
  3480.00    -0.005
  3490.00    -0.005
  3500.00    -0.005
  3510.00     0.000
  3520.00    -0.005
  3530.00     0.000
  3540.00     0.000
  3550.00     0.000
  3560.00     0.000
  3570.00     0.005
  3580.00    -0.005
  3590.00     0.000
  3600.00     0.000
  3610.00    -0.010
  3620.00    -0.005
  3630.00    -0.005
  3640.00    -0.005
  3650.00     0.000
  3660.00     0.000
  3670.00    -0.005
  3680.00    -0.005
  3690.00     0.000
  3700.00    -0.005
  3710.00    -0.010
  3720.00     0.000
  3730.00    -0.005
  3740.00    -0.005
  3750.00    -0.005
  3760.00     0.000
  3770.00     0.000
  3780.00    -0.015
  3790.00     0.005
  3800.00    -0.010
  3810.00     0.000
  3820.00     0.000
  3830.00    -0.005
  3840.00    -0.005
  3850.00     0.000
  3860.00    -0.010
  3870.00    -0.005
  3880.00    -0.005
  3890.00    -0.005
  3900.00    -0.005
  3910.00    -0.005
  3920.00    -0.005
  3930.00    -0.005
  3940.00    -0.005
  3950.00     0.000
  3960.00     0.000
  3970.00     0.000
  3980.00     0.000
  3990.00     0.000
  4000.00    -0.005
  4010.00     0.000
  4020.00    -0.005
  4030.00     0.000
  4040.00    -0.005
  4050.00     0.000
  4060.00     0.000
  4070.00     0.000
  4080.00     0.000
  4090.00    -0.010
  4100.00    -0.005
  4110.00     0.000
  4120.00     0.000
  4130.00    -0.010
  4140.00     0.000
  4150.00     0.000
  4160.00     0.000
  4170.00    -0.010
  4180.00     0.000
  4190.00     0.000
  4200.00    -0.005
  4210.00     0.000
  4220.00    -0.005
  4230.00     0.000
  4240.00     0.000
  4250.00     0.000
  4260.00    -0.005
  4270.00     0.000
  4280.00    -0.005
  4290.00     0.000
  4300.00     0.000
  4310.00    -0.015
  4320.00     0.000
  4330.00    -0.010
  4340.00     0.000
  4350.00     0.000
  4360.00    -0.005
  4370.00    -0.005
  4380.00    -0.005
  4390.00    -0.005
  4400.00    -0.005
  4410.00     0.000
  4420.00     0.000
  4430.00    -0.005
  4440.00    -0.005
  4450.00    -0.005
  4460.00    -0.005
  4470.00    -0.010
  4480.00     0.000
  4490.00    -0.005
  4500.00    -0.005
  4510.00    -0.005
  4520.00    -0.005
  4530.00    -0.010
  4540.00    -0.005
  4550.00    -0.005
  4560.00    -0.010
  4570.00    -0.005
  4580.00     0.000
  4590.00     0.000
  4600.00    -0.005
  4610.00    -0.005
  4620.00    -0.005
  4630.00    -0.010
  4640.00    -0.005
  4650.00    -0.005
  4660.00    -0.005
  4670.00    -0.005
  4680.00    -0.005
  4690.00    -0.005
  4700.00    -0.005
  4710.00    -0.005
  4720.00     0.000
  4730.00    -0.005
  4740.00     0.000
  4750.00    -0.005
  4760.00    -0.005
  4770.00    -0.005
  4780.00     0.000
  4790.00    -0.005
  4800.00    -0.005
  4810.00    -0.010
  4820.00    -0.010
  4830.00    -0.005
  4840.00    -0.005
  4850.00    -0.005
  4860.00    -0.010
  4870.00    -0.005
  4880.00    -0.005
  4890.00    -0.005
  4900.00    -0.010
  4910.00    -0.005
  4920.00    -0.010
  4930.00    -0.005
  4940.00     0.000
  4950.00    -0.005
  4960.00    -0.005
  4970.00    -0.005
  4980.00    -0.005
  4990.00    -0.005
  5000.00    -0.005
  5010.00    -0.005
  5020.00    -0.005
  5030.00    -0.005
  5040.00    -0.005
  5050.00    -0.005
  5060.00    -0.005
  5070.00    -0.005
  5080.00    -0.005
  5090.00    -0.005
  5100.00    -0.005
  5110.00    -0.005
  5120.00    -0.005
  5130.00     0.000
  5140.00    -0.005
  5150.00    -0.005
  5160.00    -0.005
  5170.00    -0.005
  5180.00     0.000
  5190.00    -0.005
  5200.00    -0.005
  5210.00    -0.005
  5220.00    -0.005
  5230.00    -0.005
  5240.00    -0.005
  5250.00    -0.005
  5260.00    -0.005
  5270.00     0.000
  5280.00    -0.005
  5290.00    -0.010
  5300.00    -0.005
  5310.00    -0.005
  5320.00    -0.005
  5330.00    -0.005
  5340.00    -0.005
  5350.00    -0.005
  5360.00    -0.005
  5370.00    -0.005
  5380.00    -0.005
  5390.00     0.000
  5400.00    -0.005
  5410.00    -0.010
  5420.00    -0.005
  5430.00    -0.005
  5440.00     0.000
  5450.00    -0.005
  5460.00    -0.005
  5470.00    -0.005
  5480.00    -0.005
  5490.00    -0.005
  5500.00    -0.005
  5510.00    -0.005
  5520.00    -0.005
  5530.00    -0.005
  5540.00    -0.005
  5550.00     0.000
  5560.00     0.000
  5570.00     0.000
  5580.00    -0.005
  5590.00    -0.005
  5600.00    -0.005
  5610.00     0.000
  5620.00     0.000
  5630.00    -0.005
  5640.00     0.000
  5650.00     0.000
  5660.00    -0.005
  5670.00    -0.005
  5680.00    -0.005
  5690.00    -0.005
  5700.00    -0.005
  5710.00    -0.005
  5720.00     0.000
  5730.00    -0.005
  5740.00    -0.005
  5750.00    -0.005
  5760.00    -0.005
  5770.00    -0.005
  5780.00     0.000
  5790.00    -0.005
  5800.00    -0.005
  5810.00    -0.005
  5820.00     0.000
  5830.00    -0.005
  5840.00    -0.005
  5850.00    -0.005
  5860.00    -0.005
  5870.00    -0.005
  5880.00    -0.005
  5890.00    -0.005
  5900.00     0.000
  5910.00    -0.005
  5920.00    -0.005
  5930.00    -0.005
  5940.00    -0.005
  5950.00    -0.005
  5960.00    -0.005
  5970.00    -0.005
  5980.00    -0.005
  5990.00    -0.005
  6000.00    -0.005
  6010.00     0.000
  6020.00    -0.005
  6030.00    -0.005
  6040.00     0.000
  6050.00    -0.005
  6060.00    -0.005
  6070.00     0.000
  6080.00    -0.005
  6090.00    -0.005
  6100.00    -0.005
  6110.00     0.000
  6120.00    -0.005
  6130.00     0.000
  6140.00    -0.005
  6150.00    -0.005
  6160.00     0.000
  6170.00    -0.005
  6180.00    -0.005
  6190.00    -0.005
  6200.00     0.000
  6210.00    -0.005
  6220.00    -0.005
  6230.00    -0.005
  6240.00    -0.005
  6250.00     0.000
  6260.00    -0.005
  6270.00     0.000
  6280.00    -0.005
  6290.00     0.000
  6300.00     0.000
  6310.00    -0.005
  6320.00     0.000
  6330.00    -0.005
  6340.00    -0.005
  6350.00    -0.005
  6360.00     0.000
  6370.00     0.000
  6380.00     0.000
  6390.00    -0.005
  6400.00    -0.005
  6410.00    -0.005
  6420.00     0.000
  6430.00    -0.005
  6440.00    -0.005
  6450.00     0.000
  6460.00    -0.010
  6470.00    -0.005
  6480.00    -0.010
  6490.00     0.000
  6500.00    -0.005
  6510.00    -0.005
  6520.00     0.000
  6530.00    -0.005
  6540.00    -0.005
  6550.00    -0.005
  6560.00     0.000
  6570.00     0.000
  6580.00    -0.005
  6590.00     0.000
  6600.00     0.000
  6610.00     0.000
  6620.00     0.000
  6630.00    -0.005
  6640.00    -0.005
  6650.00    -0.005
  6660.00    -0.005
  6670.00     0.000
  6680.00    -0.005
  6690.00    -0.005
  6700.00    -0.005
  6710.00    -0.005
  6720.00    -0.005
  6730.00    -0.005
  6740.00    -0.005
  6750.00     0.000
  6760.00    -0.005
  6770.00     0.000
  6780.00    -0.005
  6790.00    -0.005
  6800.00     0.000
  6810.00     0.000
  6820.00    -0.005
  6830.00    -0.010
  6840.00    -0.005
  6850.00     0.000
  6860.00     0.000
  6870.00     0.000
  6880.00     0.000
  6890.00     0.005
  6900.00     0.005
  6910.00     0.000
  6920.00     0.015
  6930.00     0.020
  6940.00     0.040
  6950.00     0.075
  6960.00     0.145
  6970.00     0.210
  6980.00     0.305
  6990.00     0.510
  7000.00     0.735
  7010.00     1.000
  7020.00     1.480
  7030.00     1.990
  7040.00     2.725
  7050.00     3.525
  7060.00     4.635
  7070.00     5.850
  7080.00     7.135
  7090.00     8.805
  7100.00    10.715
  7110.00    12.425
  7120.00    14.750
  7130.00    17.045
  7140.00    19.395
  7150.00    21.695
  7160.00    24.570
  7170.00    27.025
  7180.00    29.525
  7190.00    32.540
  7200.00    34.950
  7210.00    37.310
  7220.00    40.010
  7230.00    42.390
  7240.00    44.510
  7250.00    46.925
  7260.00    48.020
  7270.00    50.255
  7280.00    51.470
  7290.00    52.730
  7300.00    53.935
  7310.00    55.475
  7320.00    56.845
  7330.00    57.570
  7340.00    59.415
  7350.00    59.220
  7360.00    60.310
  7370.00    61.570
  7380.00    62.140
  7390.00    62.860
  7400.00    63.605
  7410.00    64.495
  7420.00    64.780
  7430.00    66.665
  7440.00    67.060
  7450.00    67.235
  7460.00    68.385
  7470.00    69.140
  7480.00    69.890
  7490.00    71.770
  7500.00    72.080
  7510.00    73.315
  7520.00    75.045
  7530.00    74.660
  7540.00    77.160
  7550.00    78.990
  7560.00    79.215
  7570.00    82.105
  7580.00    82.045
  7590.00    83.815
  7600.00    84.975
  7610.00    85.990
  7620.00    86.725
  7630.00    86.465
  7640.00    89.370
  7650.00    89.140
  7660.00    89.810
  7670.00    89.390
  7680.00    91.085
  7690.00    92.670
  7700.00    93.150
  7710.00    89.755
  7720.00    91.675
  7730.00    91.050
  7740.00    92.125
  7750.00    90.710
  7760.00    91.830
  7770.00    89.365
  7780.00    87.380
  7790.00    87.905
  7800.00    89.340
  7810.00    87.445
  7820.00    85.755
  7830.00    85.180
  7840.00    84.915
  7850.00    84.095
  7860.00    84.505
  7870.00    83.940
  7880.00    83.310
  7890.00    83.345
  7900.00    83.050
  7910.00    82.445
  7920.00    82.580
  7930.00    81.270
  7940.00    79.315
  7950.00    80.340
  7960.00    81.340
  7970.00    81.640
  7980.00    79.490
  7990.00    80.220
  8000.00    81.225
  8010.00    82.850
  8020.00    80.235
  8030.00    80.310
  8040.00    83.180
  8050.00    81.870
  8060.00    81.350
  8070.00    81.895
  8080.00    84.065
  8090.00    83.320
  8100.00    83.545
  8110.00    84.160
  8120.00    83.915
  8130.00    84.560
  8140.00    84.800
  8150.00    83.785
  8160.00    86.465
  8170.00    83.670
  8180.00    84.900
  8190.00    85.640
  8200.00    87.240
  8210.00    85.325
  8220.00    85.330
  8230.00    86.035
  8240.00    85.595
  8250.00    86.490
  8260.00    85.670
  8270.00    85.485
  8280.00    87.220
  8290.00    86.760
  8300.00    85.035
  8310.00    86.145
  8320.00    86.530
  8330.00    84.550
  8340.00    86.425
  8350.00    83.380
  8360.00    89.005
  8370.00    87.390
  8380.00    89.340
  8390.00    89.965
  8400.00    88.195
  8410.00    88.195
  8420.00    91.850
  8430.00    88.610
  8440.00    90.030
  8450.00    88.290
  8460.00    84.960
  8470.00    90.815
  8480.00    92.000
  8490.00    89.210
  8500.00    88.375
  8510.00    92.250
  8520.00    88.145
  8530.00    92.470
  8540.00    90.735
  8550.00    94.785
  8560.00    88.355
  8570.00    94.505
  8580.00    92.675
  8590.00    85.615
  8600.00    92.665
  8610.00    91.180
  8620.00    94.530
  8630.00    95.850
  8640.00    90.555
  8650.00    89.700
  8660.00    96.065
  8670.00    92.260
  8680.00    90.745
  8690.00    89.040
  8700.00    91.975
  8710.00    89.835
  8720.00    84.895
  8730.00    85.625
  8740.00    84.700
  8750.00    90.135
  8760.00    84.615
  8770.00    87.265
  8780.00    90.865
  8790.00    88.405
  8800.00    87.150
  8810.00    87.745
  8820.00    86.865
  8830.00    87.255
  8840.00    84.815
  8850.00    82.550
  8860.00    80.850
  8870.00    83.930
  8880.00    79.855
  8890.00    80.920
  8900.00    79.680
  8910.00    79.730
  8920.00    78.125
  8930.00    79.925
  8940.00    81.255
  8950.00    78.880
  8960.00    81.050
  8970.00    80.955
  8980.00    83.655
  8990.00    79.530
  9000.00    81.875
  9010.00    82.335
  9020.00    82.485
  9030.00    83.115
  9040.00    82.325
  9050.00    83.840
  9060.00    83.945
  9070.00    81.605
  9080.00    81.980
  9090.00    82.725
  9100.00    80.785
  9110.00    81.040
  9120.00    79.685
  9130.00    79.495
  9140.00    75.505
  9150.00    74.685
  9160.00    73.160
  9170.00    69.800
  9180.00    66.850
  9190.00    65.110
  9200.00    60.550
  9210.00    57.575
  9220.00    54.405
  9230.00    48.910
  9240.00    46.860
  9250.00    44.075
  9260.00    40.370
  9270.00    36.235
  9280.00    33.865
  9290.00    31.300
  9300.00    27.695
  9310.00    25.075
  9320.00    22.940
  9330.00    22.540
  9340.00    18.980
  9350.00    18.255
  9360.00    15.710
  9370.00    14.895
  9380.00    13.490
  9390.00    12.040
  9400.00    11.160
  9410.00    10.195
  9420.00     9.400
  9430.00     8.345
  9440.00     7.960
  9450.00     7.480
  9460.00     6.655
  9470.00     5.965
  9480.00     5.890
  9490.00     4.295
  9500.00     4.670
  9510.00     4.120
  9520.00     3.945
  9530.00     3.840
  9540.00     3.605
  9550.00     3.205
  9560.00     2.760
  9570.00     3.005
  9580.00     2.625
  9590.00     2.560
  9600.00     1.875
  9610.00     2.145
  9620.00     1.710
  9630.00     1.380
  9640.00     1.855
  9650.00     1.645
  9660.00     1.450
  9670.00     1.485
  9680.00     1.325
  9690.00     1.265
  9700.00     1.395
  9710.00     0.915
  9720.00     0.895
  9730.00     1.050
  9740.00     1.110
  9750.00     1.120
  9760.00     0.870
  9770.00     1.195
  9780.00     1.110
  9790.00     0.455
  9800.00     0.595
  9810.00     0.710
  9820.00     1.050
  9830.00     1.030
  9840.00     0.935
  9850.00     0.440
  9860.00     0.565
  9870.00     0.525
  9880.00     0.565
  9890.00     0.600
  9900.00     0.565
  9910.00     0.785
  9920.00     0.105
  9930.00     0.505
  9940.00     0.455
  9950.00     0.610
  9960.00     0.250
  9970.00    -0.090
  9980.00     0.075
  9990.00     0.310
 10000.00     0.290
 10010.00     0.240
 10020.00     0.625
 10030.00     0.585
 10040.00     0.320
 10050.00     0.700
 10060.00     0.385
 10070.00     0.470
 10080.00     0.130
 10090.00     0.235
 10100.00     0.410
 10110.00     0.480
 10120.00     0.215
 10130.00     0.370
 10140.00     0.275
 10150.00     0.105
 10160.00    -0.010
 10170.00     0.305
 10180.00     0.615
 10190.00     0.495
 10200.00     0.185
 10210.00     0.230
 10220.00     0.425
 10230.00     0.385
 10240.00     0.385
 10250.00     0.265
 10260.00     0.205
 10270.00     0.190
 10280.00     0.180
 10290.00     0.260
 10300.00     0.240
 10310.00     0.230
 10320.00     0.300
 10330.00     0.305
 10340.00     0.010
 10350.00    -0.005
 10360.00     0.395
 10370.00     0.395
 10380.00     0.090
 10390.00     0.210
 10400.00    -0.010
 10410.00     0.265
 10420.00    -0.095
 10430.00     0.290
 10440.00     0.235
 10450.00     0.230
 10460.00     0.130
 10470.00     0.080
 10480.00     0.190
 10490.00     0.035
 10500.00     0.165
 10510.00     0.125
 10520.00     0.295
 10530.00     0.170
 10540.00     0.210
 10550.00     0.205
 10560.00     0.190
 10570.00     0.260
 10580.00     0.275
 10590.00     0.200
 10600.00     0.250
 10610.00     0.095
 10620.00     0.115
 10630.00    -0.015
 10640.00     0.225
 10650.00     0.185
 10660.00     0.140
 10670.00     0.200
 10680.00     0.165
 10690.00     0.105
 10700.00     0.005
 10710.00     0.125
 10720.00     0.095
 10730.00     0.050
 10740.00     0.090
 10750.00     0.085
 10760.00     0.065
 10770.00     0.020
 10780.00     0.075
 10790.00    -0.100
 10800.00     0.070
 10810.00     0.050
 10820.00     0.000
 10830.00    -0.005
 10840.00     0.245
 10850.00     0.265
 10860.00     0.215
 10870.00     0.175
 10880.00     0.175
 10890.00     0.185
 10900.00     0.135
 10910.00     0.220
 10920.00     0.130
 10930.00     0.060
 10940.00     0.020
 10950.00     0.015
 10960.00     0.100
 10970.00     0.275
 10980.00     0.015
 10990.00     0.050
 11000.00     0.010
 11010.00     0.190
 11020.00    -0.050
 11030.00     0.110
 11040.00     0.200
 11050.00     0.125
 11060.00     0.255
 11070.00     0.150
 11080.00     0.105
 11090.00     0.070
 11100.00     0.265
 11110.00     0.160
 11120.00     0.050
 11130.00     0.105
 11140.00     0.150
 11150.00     0.015
 11160.00     0.130
 11170.00     0.070
 11180.00     0.140
 11190.00    -0.010
 11200.00    -0.075
 11210.00     0.010
 11220.00     0.010
 11230.00     0.135
 11240.00     0.030
 11250.00     0.105
 11260.00     0.115
 11270.00     0.250
 11280.00     0.310
 11290.00     0.150
 11300.00     0.210
 11310.00    -0.125
 11320.00     0.225
 11330.00    -0.015
 11340.00     0.325
 11350.00    -0.055
 11360.00    -0.105
 11370.00     0.065
 11380.00     0.125
 11390.00     0.395
 11400.00     0.170
 11410.00     0.020
 11420.00     0.075
 11430.00     0.070
 11440.00     0.050
 11450.00     0.200
 11460.00     0.155
 11470.00     0.000
 11480.00     0.080
 11490.00     0.095
 11500.00     0.200
 11510.00     0.095
 11520.00     0.075
 11530.00     0.010
 11540.00     0.195
 11550.00     0.010
 11560.00     0.105
 11570.00     0.060
 11580.00     0.055
 11590.00     0.025
 11600.00     0.075
 11610.00    -0.055
 11620.00    -0.145
 11630.00     0.005
 11640.00    -0.040
 11650.00     0.040
 11660.00     0.040
 11670.00     0.090
 11680.00     0.030
 11690.00     0.055
 11700.00     0.075
 11710.00    -0.035
 11720.00     0.070
 11730.00     0.025
 11740.00     0.010
 11750.00     0.245
 11760.00     0.130
 11770.00     0.095
 11780.00     0.095
 11790.00     0.185
 11800.00    -0.015
 11810.00    -0.080
 11820.00     0.085
 11830.00     0.040
 11840.00     0.070
 11850.00     0.120
 11860.00    -0.090
 11870.00    -0.080
 11880.00    -0.290
 11890.00    -0.395
 11900.00    -0.390
 11910.00     0.020
 11920.00     0.045
 11930.00     0.060
 11940.00     0.090
 11950.00     0.035
 11960.00     0.025
 11970.00     0.035
 11980.00     0.000
 11990.00     0.015
 12000.00     0.105

